Gradient Profiler Text Data File: 4.24.140128_samp4.csv
Date: 2014-01-28
Time: 18:11:47

User: MK
Experiment name: 4.24.140128
UV Unit: EM-1
Rotor Manufacturer: Beckman
Rotor Model: SW41Ti
Speed: 35 rpm
Gradient: 11 10.0% to 50.0% w/v
Time: 3
w2t: 1 x 10^0
Sample Volume: 0.9 ml
Number of Tubes: 6
Volume per mm: 0.143 ml/mm

Absorbance Units Full Scale (AUFS): 2.00
Event Mark-triggered gradient; (with distance; auto start and stop)
Delay: Event Mark Delay
UV Wavelength: 254 nm
Samples / sec: 12 Hz
EM1 Speed: 0.20 mm/sec
Distance: 72.00 mm
Number: 1
Dead Volume: 0.241868 ml; Distance due to Dead Volume: 1.69 mm
Total Distance: 72.00 mm

Data Columns:
Distance(mm), Absorbance, Fraction Number, Fraction Volume(ml)
0.00, 0.047976, 0, 0.000
0.00, 0.047242, , 
0.00, 0.045922, , 
0.00, 0.045486, , 
0.00, 0.045192, , 
0.00, 0.045240, , 
0.00, 0.045319, , 
0.00, 0.045176, , 
0.00, 0.045426, , 
0.00, 0.046318, , 
0.00, 0.047202, , 
0.00, 0.047734, , 
0.00, 0.048047, , 
0.00, 0.050343, , 
0.00, 0.055604, , 
0.00, 0.063185, , 
0.00, 0.070254, , 
0.00, 0.076126, , 
0.00, 0.078930, , 
0.00, 0.080587, , 
0.00, 0.081594, , 
0.00, 0.082074, , 
0.00, 0.082339, , 
0.00, 0.082518, , 
0.00, 0.082744, , 
0.00, 0.082934, , 
0.00, 0.082994, , 
0.00, 0.083196, , 
0.00, 0.083620, , 
0.00, 0.084726, , 
0.00, 0.087339, , 
0.00, 0.093168, , 
0.00, 0.107996, , 
0.00, 0.131956, , 
0.00, 0.171586, , 
0.00, 0.226222, , 
0.00, 0.290632, , 
0.00, 0.377726, , 
0.00, 0.456485, , 
0.00, 0.539780, , 
0.00, 0.626168, , 
0.00, 0.731389, , 
0.00, 0.820028, , 
0.00, 0.909096, , 
0.00, 0.999881, , 
0.00, 1.090444, , 
0.00, 1.199301, , 
0.00, 1.289471, , 
0.00, 1.380981, , 
0.00, 1.472503, , 
0.00, 1.562067, , 
0.00, 1.667835, , 
0.00, 1.753180, , 
0.00, 1.832799, , 
0.00, 1.901785, , 
0.00, 1.961592, , 
0.00, 1.992110, , 
0.00, 2.009853, , 
0.00, 2.019836, , 
0.00, 2.025268, , 
0.00, 2.028452, , 
0.00, 2.029733, , 
0.00, 2.030558, , 
0.00, 2.031137, , 
0.00, 2.031442, , 
0.00, 2.031565, , 
0.00, 2.031703, , 
0.00, 2.031902, , 
0.00, 2.032104, , 
0.00, 2.032155, , 
0.00, 2.032167, , 
0.00, 2.032227, , 
0.00, 2.032405, , 
0.00, 2.032536, , 
0.00, 2.032469, , 
0.00, 2.032362, , 
0.00, 2.032401, , 
0.00, 2.032584, , 
0.00, 2.032604, , 
0.00, 2.031961, , 
0.00, 2.031442, , 
0.00, 2.031434, , 
0.00, 2.031850, , 
0.00, 2.032255, , 
0.00, 2.032481, , 
0.00, 2.032552, , 
0.00, 2.032671, , 
0.00, 2.032826, , 
0.00, 2.032853, , 
0.00, 2.032810, , 
0.00, 2.032794, , 
0.00, 2.032877, , 
0.00, 2.032984, , 
0.00, 2.032956, , 
0.00, 2.032845, , 
0.00, 2.032833, , 
0.00, 2.032964, , 
0.00, 2.033071, , 
0.00, 2.032992, , 
0.00, 2.032818, , 
0.00, 2.032600, , 
0.00, 2.032596, , 
0.01, 2.032830, , 
0.03, 2.032893, , 
0.04, 2.032810, , 
0.06, 2.032631, , 
0.08, 2.032548, , 
0.09, 2.032659, , 
0.11, 2.032762, , 
0.13, 2.032814, , 
0.14, 2.032897, , 
0.16, 2.033012, , 
0.18, 2.033063, , 
0.19, 2.032988, , 
0.21, 2.032992, , 
0.23, 2.033127, , 
0.24, 2.033250, , 
0.26, 2.033190, , 
0.28, 2.032956, , 
0.29, 2.032937, , 
0.31, 2.033143, , 
0.33, 2.033301, , 
0.35, 2.033202, , 
0.36, 2.033036, , 
0.38, 2.032921, , 
0.39, 2.032992, , 
0.41, 2.033163, , 
0.43, 2.033171, , 
0.44, 2.033111, , 
0.46, 2.033131, , 
0.48, 2.033178, , 
0.49, 2.033174, , 
0.51, 2.032758, , 
0.53, 2.032068, , 
0.54, 2.031347, , 
0.56, 2.031208, , 
0.58, 2.031240, , 
0.59, 2.030966, , 
0.61, 2.030823, , 
0.63, 2.030907, , 
0.64, 2.031331, , 
0.66, 2.031945, , 
0.68, 2.032417, , 
0.69, 2.032699, , 
0.71, 2.033036, , 
0.73, 2.033274, , 
0.75, 2.033254, , 
0.76, 2.033127, , 
0.78, 2.033075, , 
0.79, 2.033151, , 
0.81, 2.033285, , 
0.83, 2.033262, , 
0.84, 2.033186, , 
0.86, 2.033167, , 
0.88, 2.033266, , 
0.89, 2.033297, , 
0.91, 2.033210, , 
0.93, 2.033182, , 
0.94, 2.033274, , 
0.96, 2.033337, , 
0.98, 2.033285, , 
0.99, 2.033111, , 
1.01, 2.033091, , 
1.03, 2.033234, , 
1.04, 2.033385, , 
1.06, 2.033171, , 
1.08, 2.032639, , 
1.09, 2.032453, , 
1.11, 2.032631, , 
1.13, 2.032992, , 
1.15, 2.033167, , 
1.16, 2.033107, , 
1.18, 2.033044, , 
1.19, 2.033119, , 
1.21, 2.033258, , 
1.23, 2.033274, , 
1.24, 2.033238, , 
1.26, 2.033246, , 
1.28, 2.033285, , 
1.29, 2.033301, , 
1.31, 2.033174, , 
1.33, 2.033151, , 
1.34, 2.033254, , 
1.36, 2.033357, , 
1.38, 2.033266, , 
1.39, 2.033111, , 
1.41, 2.032937, , 
1.43, 2.032810, , 
1.44, 2.032861, , 
1.46, 2.032917, , 
1.48, 2.032933, , 
1.49, 2.033004, , 
1.51, 2.033155, , 
1.53, 2.033297, , 
1.54, 2.033305, , 
1.56, 2.033274, , 
1.58, 2.033234, , 
1.59, 2.033262, , 
1.61, 2.033178, , 
1.63, 2.032758, , 
1.64, 2.032671, , 
1.66, 2.032845, , 
1.68, 2.033115, , 
1.69, 2.033230, , 
1.71, 2.033182, , 
1.73, 2.033174, , 
1.74, 2.033313, , 
1.76, 2.033496, , 
1.78, 2.033452, , 
1.79, 2.033289, , 
1.81, 2.033079, , 
1.83, 2.032933, , 
1.84, 2.033016, , 
1.86, 2.033131, , 
1.88, 2.033163, , 
1.89, 2.033182, , 
1.91, 2.033282, , 
1.93, 2.033377, , 
1.94, 2.033365, , 
1.96, 2.033313, , 
1.98, 2.033309, , 
1.99, 2.033373, , 
2.01, 2.033317, , 
2.03, 2.032941, , 
2.04, 2.032818, , 
2.06, 2.032730, , 
2.08, 2.032477, , 
2.09, 2.031981, , 
2.11, 2.031037, , 
2.13, 2.030082, , 
2.14, 2.029035, , 
2.16, 2.027770, , 
2.18, 2.025645, , 
2.19, 2.023401, , 
2.21, 2.020713, , 
2.23, 2.017791, , 
2.24, 2.014904, , 
2.26, 2.011022, , 
2.28, 2.007319, , 
2.29, 2.003319, , 
2.31, 1.999132, , 
2.33, 1.994723, , 
2.34, 1.988771, , 
2.36, 1.983387, , 
2.38, 1.977848, , 
2.39, 1.972135, , 
2.41, 1.966088, , 
2.43, 1.958364, , 
2.44, 1.952080, , 
2.46, 1.946164, , 
2.48, 1.940368, , 
2.50, 1.933231, , 
2.51, 1.926962, , 
2.53, 1.920642, , 
2.54, 1.914596, , 
2.56, 1.908609, , 
2.58, 1.901325, , 
2.59, 1.895255, , 
2.61, 1.889244, , 
2.63, 1.883293, , 
2.64, 1.877440, , 
2.66, 1.870470, , 
2.68, 1.864840, , 
2.69, 1.859297, , 
2.71, 1.853798, , 
2.73, 1.848100, , 
2.74, 1.841209, , 
2.76, 1.835484, , 
2.78, 1.829699, , 
2.79, 1.823942, , 
2.81, 1.817963, , 
2.83, 1.810409, , 
2.84, 1.803947, , 
2.86, 1.797527, , 
2.88, 1.790985, , 
2.90, 1.782659, , 
2.91, 1.775205, , 
2.93, 1.767596, , 
2.94, 1.760000, , 
2.96, 1.752383, , 
2.98, 1.742728, , 
2.99, 1.734239, , 
3.01, 1.725671, , 
3.03, 1.717119, , 
3.04, 1.708309, , 
3.06, 1.697302, , 
3.08, 1.688139, , 
3.09, 1.679353, , 
3.11, 1.670785, , 
3.13, 1.662344, , 
3.14, 1.652178, , 
3.16, 1.643788, , 
3.18, 1.635580, , 
3.19, 1.627484, , 
3.21, 1.619455, , 
3.23, 1.609642, , 
3.24, 1.601625, , 
3.26, 1.593854, , 
3.28, 1.586344, , 
3.30, 1.577363, , 
3.31, 1.569989, , 
3.33, 1.562622, , 
3.34, 1.555624, , 
3.36, 1.548792, , 
3.38, 1.540454, , 
3.39, 1.533535, , 
3.41, 1.526613, , 
3.43, 1.519646, , 
3.44, 1.512719, , 
3.46, 1.504377, , 
3.48, 1.497435, , 
3.49, 1.490575, , 
3.51, 1.483795, , 
3.53, 1.477000, , 
3.54, 1.468725, , 
3.56, 1.461814, , 
3.58, 1.455058, , 
3.59, 1.448408, , 
3.61, 1.440376, , 
3.63, 1.433520, , 
3.64, 1.426594, , 
3.66, 1.419706, , 
3.68, 1.412673, , 
3.69, 1.404065, , 
3.71, 1.396662, , 
3.73, 1.389327, , 
3.74, 1.381956, , 
3.76, 1.374443, , 
3.78, 1.365276, , 
3.79, 1.357588, , 
3.81, 1.349964, , 
3.83, 1.342295, , 
3.84, 1.334532, , 
3.86, 1.324981, , 
3.88, 1.316940, , 
3.89, 1.308923, , 
3.91, 1.300910, , 
3.93, 1.291235, , 
3.94, 1.282933, , 
3.96, 1.274606, , 
3.98, 1.266514, , 
3.99, 1.258513, , 
4.01, 1.248818, , 
4.03, 1.240623, , 
4.04, 1.232471, , 
4.06, 1.224414, , 
4.08, 1.216496, , 
4.09, 1.207119, , 
4.11, 1.199380, , 
4.13, 1.191672, , 
4.14, 1.184024, , 
4.16, 1.176340, , 
4.18, 1.166856, , 
4.19, 1.158886, , 
4.21, 1.151036, , 
4.23, 1.143229, , 
4.24, 1.135279, , 
4.26, 1.125565, , 
4.28, 1.117560, , 
4.29, 1.109872, , 
4.31, 1.102295, , 
4.33, 1.092997, , 
4.34, 1.085095, , 
4.36, 1.077237, , 
4.38, 1.069541, , 
4.39, 1.061980, , 
4.41, 1.052864, , 
4.43, 1.045081, , 
4.44, 1.037191, , 
4.46, 1.029293, , 
4.48, 1.021395, , 
4.49, 1.011919, , 
4.51, 1.004159, , 
4.53, 0.996432, , 
4.54, 0.988863, , 
4.56, 0.981401, , 
4.58, 0.972234, , 
4.59, 0.964415, , 
4.61, 0.956699, , 
4.63, 0.949130, , 
4.64, 0.941474, , 
4.66, 0.931958, , 
4.68, 0.924016, , 
4.69, 0.916336, , 
4.71, 0.908831, , 
4.73, 0.899692, , 
4.74, 0.891960, , 
4.76, 0.884355, , 
4.78, 0.876929, , 
4.79, 0.869606, , 
4.81, 0.860823, , 
4.83, 0.853457, , 
4.84, 0.846197, , 
4.86, 0.839052, , 
4.88, 0.831776, , 
4.89, 0.822911, , 
4.91, 0.815584, , 
4.93, 0.808590, , 
4.94, 0.801671, , 
4.96, 0.794812, , 
4.98, 0.786469, , 
4.99, 0.779578, , 
5.01, 0.772763, , 
5.03, 0.765991, , 
5.05, 0.758108, , 
5.06, 0.751550, , 
5.08, 0.745044, , 
5.09, 0.738660, , 
5.11, 0.732447, , 
5.13, 0.724918, , 
5.14, 0.718519, , 
5.16, 0.712068, , 
5.18, 0.705740, , 
5.19, 0.699527, , 
5.21, 0.692120, , 
5.23, 0.686018, , 
5.24, 0.680114, , 
5.26, 0.674361, , 
5.28, 0.668624, , 
5.29, 0.661527, , 
5.31, 0.655671, , 
5.33, 0.650136, , 
5.34, 0.644779, , 
5.36, 0.639145, , 
5.38, 0.631933, , 
5.39, 0.626180, , 
5.41, 0.620775, , 
5.43, 0.615609, , 
5.45, 0.609345, , 
5.46, 0.604016, , 
5.48, 0.598738, , 
5.49, 0.593647, , 
5.51, 0.588537, , 
5.53, 0.582466, , 
5.54, 0.577419, , 
5.56, 0.572384, , 
5.58, 0.567352, , 
5.59, 0.562471, , 
5.61, 0.556480, , 
5.63, 0.551532, , 
5.64, 0.546659, , 
5.66, 0.541834, , 
5.68, 0.537032, , 
5.69, 0.531117, , 
5.71, 0.526291, , 
5.73, 0.521740, , 
5.74, 0.517354, , 
5.76, 0.512981, , 
5.78, 0.507454, , 
5.79, 0.502898, , 
5.81, 0.498561, , 
5.83, 0.494334, , 
5.85, 0.489164, , 
5.86, 0.484695, , 
5.88, 0.480259, , 
5.89, 0.476092, , 
5.91, 0.471936, , 
5.93, 0.466833, , 
5.94, 0.462714, , 
5.96, 0.458789, , 
5.98, 0.454978, , 
5.99, 0.451144, , 
6.01, 0.446331, , 
6.03, 0.442267, , 
6.04, 0.438504, , 
6.06, 0.434860, , 
6.08, 0.430479, , 
6.09, 0.426736, , 
6.11, 0.423041, , 
6.13, 0.419484, , 
6.14, 0.415928, , 
6.16, 0.411610, , 
6.18, 0.407907, , 
6.19, 0.404275, , 
6.21, 0.400643, , 
6.23, 0.396999, , 
6.24, 0.392919, , 
6.26, 0.389712, , 
6.28, 0.386568, , 
6.29, 0.383499, , 
6.31, 0.380493, , 
6.33, 0.376608, , 
6.34, 0.373337, , 
6.36, 0.370224, , 
6.38, 0.367227, , 
6.39, 0.364186, , 
6.41, 0.360336, , 
6.43, 0.357009, , 
6.44, 0.354095, , 
6.46, 0.351450, , 
6.48, 0.348140, , 
6.49, 0.345214, , 
6.51, 0.342363, , 
6.53, 0.339726, , 
6.54, 0.336903, , 
6.56, 0.332930, , 
6.58, 0.329330, , 
6.59, 0.326305, , 
6.61, 0.323819, , 
6.63, 0.321111, , 
6.64, 0.317820, , 
6.66, 0.315270, , 
6.68, 0.313137, , 
6.69, 0.311539, , 
6.71, 0.309843, , 
6.73, 0.307301, , 
6.74, 0.305085, , 
6.76, 0.302987, , 
6.78, 0.300866, , 
6.79, 0.298654, , 
6.81, 0.295747, , 
6.83, 0.293348, , 
6.84, 0.291108, , 
6.86, 0.288912, , 
6.88, 0.286168, , 
6.89, 0.283749, , 
6.91, 0.281351, , 
6.93, 0.279198, , 
6.94, 0.277128, , 
6.96, 0.274479, , 
6.98, 0.272120, , 
6.99, 0.269749, , 
7.01, 0.267644, , 
7.03, 0.264940, , 
7.04, 0.262077, , 
7.06, 0.259932, , 
7.08, 0.257969, , 
7.09, 0.256015, , 
7.11, 0.253878, , 
7.13, 0.251007, , 
7.14, 0.248767, , 
7.16, 0.246836, , 
7.18, 0.245060, , 
7.20, 0.242740, , 
7.21, 0.240678, , 
7.23, 0.238573, , 
7.24, 0.236674, , 
7.26, 0.234953, , 
7.28, 0.232860, , 
7.29, 0.231024, , 
7.31, 0.229220, , 
7.33, 0.227495, , 
7.34, 0.225711, , 
7.36, 0.223427, , 
7.38, 0.221560, , 
7.39, 0.219902, , 
7.41, 0.218348, , 
7.43, 0.216675, , 
7.44, 0.214562, , 
7.46, 0.212793, , 
7.48, 0.211191, , 
7.49, 0.209772, , 
7.51, 0.208273, , 
7.53, 0.206307, , 
7.54, 0.204673, , 
7.56, 0.203262, , 
7.58, 0.201890, , 
7.60, 0.200094, , 
7.61, 0.198555, , 
7.63, 0.197041, , 
7.64, 0.195669, , 
7.66, 0.194348, , 
7.68, 0.192683, , 
7.69, 0.191311, , 
7.71, 0.190070, , 
7.73, 0.188916, , 
7.74, 0.187699, , 
7.76, 0.186050, , 
7.78, 0.184646, , 
7.79, 0.183433, , 
7.81, 0.182358, , 
7.83, 0.181240, , 
7.84, 0.179746, , 
7.86, 0.178548, , 
7.88, 0.177454, , 
7.89, 0.176403, , 
7.91, 0.175226, , 
7.93, 0.173636, , 
7.94, 0.172347, , 
7.96, 0.171292, , 
7.98, 0.170309, , 
8.00, 0.168961, , 
8.01, 0.167637, , 
8.03, 0.166134, , 
8.04, 0.164865, , 
8.06, 0.163842, , 
8.08, 0.162593, , 
8.09, 0.161562, , 
8.11, 0.160615, , 
8.13, 0.159786, , 
8.14, 0.158914, , 
8.16, 0.157399, , 
8.18, 0.156277, , 
8.19, 0.155290, , 
8.21, 0.154382, , 
8.23, 0.153074, , 
8.24, 0.151872, , 
8.26, 0.150794, , 
8.28, 0.149910, , 
8.29, 0.149136, , 
8.31, 0.148137, , 
8.33, 0.147217, , 
8.34, 0.146298, , 
8.36, 0.145556, , 
8.38, 0.144513, , 
8.39, 0.143320, , 
8.41, 0.142432, , 
8.43, 0.141611, , 
8.44, 0.140838, , 
8.46, 0.139981, , 
8.48, 0.138863, , 
8.49, 0.137924, , 
8.51, 0.137218, , 
8.53, 0.136524, , 
8.54, 0.135715, , 
8.56, 0.134577, , 
8.58, 0.133634, , 
8.59, 0.132924, , 
8.61, 0.132290, , 
8.63, 0.131207, , 
8.64, 0.130279, , 
8.66, 0.129526, , 
8.68, 0.129022, , 
8.69, 0.128487, , 
8.71, 0.127643, , 
8.73, 0.126917, , 
8.74, 0.126231, , 
8.76, 0.125589, , 
8.78, 0.124887, , 
8.79, 0.123884, , 
8.81, 0.123067, , 
8.83, 0.122425, , 
8.84, 0.121985, , 
8.86, 0.121394, , 
8.88, 0.120454, , 
8.89, 0.119713, , 
8.91, 0.119261, , 
8.93, 0.118813, , 
8.94, 0.118178, , 
8.96, 0.117211, , 
8.98, 0.116386, , 
8.99, 0.115736, , 
9.01, 0.115173, , 
9.03, 0.114202, , 
9.04, 0.113341, , 
9.06, 0.112612, , 
9.08, 0.112235, , 
9.09, 0.111858, , 
9.11, 0.111188, , 
9.13, 0.110546, , 
9.14, 0.110026, , 
9.16, 0.109515, , 
9.18, 0.108861, , 
9.19, 0.107893, , 
9.21, 0.107172, , 
9.23, 0.106672, , 
9.24, 0.106288, , 
9.26, 0.105729, , 
9.28, 0.104836, , 
9.29, 0.104143, , 
9.31, 0.103663, , 
9.33, 0.103195, , 
9.35, 0.102473, , 
9.36, 0.101867, , 
9.38, 0.101228, , 
9.39, 0.100701, , 
9.41, 0.100186, , 
9.43, 0.099103, , 
9.44, 0.098457, , 
9.46, 0.098136, , 
9.48, 0.097981, , 
9.49, 0.097676, , 
9.51, 0.097188, , 
9.53, 0.096859, , 
9.54, 0.096645, , 
9.56, 0.096324, , 
9.58, 0.095749, , 
9.59, 0.094972, , 
9.61, 0.094460, , 
9.63, 0.094179, , 
9.64, 0.094004, , 
9.66, 0.093647, , 
9.68, 0.093057, , 
9.69, 0.092620, , 
9.71, 0.092311, , 
9.73, 0.092034, , 
9.75, 0.091546, , 
9.76, 0.091114, , 
9.78, 0.090698, , 
9.79, 0.090305, , 
9.81, 0.089980, , 
9.83, 0.089512, , 
9.84, 0.089096, , 
9.86, 0.088790, , 
9.88, 0.088552, , 
9.89, 0.088200, , 
9.91, 0.087617, , 
9.93, 0.087196, , 
9.94, 0.086959, , 
9.96, 0.086729, , 
9.98, 0.086273, , 
9.99, 0.085658, , 
10.01, 0.085115, , 
10.03, 0.084623, , 
10.04, 0.084366, , 
10.06, 0.084092, , 
10.08, 0.083660, , 
10.09, 0.083243, , 
10.11, 0.083002, , 
10.13, 0.082803, , 
10.15, 0.082379, , 
10.16, 0.081975, , 
10.18, 0.081574, , 
10.19, 0.081221, , 
10.21, 0.080912, , 
10.23, 0.080401, , 
10.24, 0.080004, , 
10.26, 0.079762, , 
10.28, 0.079552, , 
10.29, 0.079247, , 
10.31, 0.078751, , 
10.33, 0.078402, , 
10.34, 0.078236, , 
10.36, 0.078069, , 
10.38, 0.077673, , 
10.39, 0.077015, , 
10.41, 0.076658, , 
10.43, 0.076499, , 
10.44, 0.076448, , 
10.46, 0.076099, , 
10.48, 0.075667, , 
10.49, 0.075318, , 
10.51, 0.075100, , 
10.53, 0.074874, , 
10.54, 0.074485, , 
10.56, 0.074203, , 
10.58, 0.073993, , 
10.59, 0.073862, , 
10.61, 0.073613, , 
10.63, 0.073121, , 
10.64, 0.072792, , 
10.66, 0.072736, , 
10.68, 0.072713, , 
10.69, 0.072495, , 
10.71, 0.072094, , 
10.73, 0.071805, , 
10.74, 0.071749, , 
10.76, 0.071686, , 
10.78, 0.071265, , 
10.79, 0.070841, , 
10.81, 0.070520, , 
10.83, 0.070112, , 
10.84, 0.069854, , 
10.86, 0.069600, , 
10.88, 0.069453, , 
10.89, 0.069327, , 
10.91, 0.069315, , 
10.93, 0.069243, , 
10.94, 0.068918, , 
10.96, 0.068736, , 
10.98, 0.068657, , 
10.99, 0.068522, , 
11.01, 0.068327, , 
11.03, 0.067923, , 
11.04, 0.067574, , 
11.06, 0.067459, , 
11.08, 0.067443, , 
11.09, 0.067213, , 
11.11, 0.066765, , 
11.13, 0.066424, , 
11.14, 0.066309, , 
11.16, 0.066353, , 
11.18, 0.066242, , 
11.19, 0.066020, , 
11.21, 0.065711, , 
11.23, 0.065346, , 
11.24, 0.065223, , 
11.26, 0.065108, , 
11.28, 0.065001, , 
11.29, 0.064914, , 
11.31, 0.064783, , 
11.33, 0.064541, , 
11.34, 0.064125, , 
11.36, 0.063839, , 
11.38, 0.063736, , 
11.39, 0.063700, , 
11.41, 0.063530, , 
11.43, 0.062903, , 
11.44, 0.062424, , 
11.46, 0.062261, , 
11.48, 0.062416, , 
11.49, 0.062440, , 
11.51, 0.062245, , 
11.53, 0.062023, , 
11.54, 0.061912, , 
11.56, 0.061817, , 
11.58, 0.061496, , 
11.59, 0.061286, , 
11.61, 0.061266, , 
11.63, 0.061258, , 
11.64, 0.061127, , 
11.66, 0.060877, , 
11.68, 0.060699, , 
11.69, 0.060635, , 
11.71, 0.060632, , 
11.73, 0.060513, , 
11.74, 0.060251, , 
11.76, 0.060057, , 
11.78, 0.059981, , 
11.79, 0.059942, , 
11.81, 0.059759, , 
11.83, 0.059161, , 
11.84, 0.058792, , 
11.86, 0.058772, , 
11.88, 0.058895, , 
11.90, 0.058859, , 
11.91, 0.058705, , 
11.93, 0.058570, , 
11.94, 0.058526, , 
11.96, 0.058471, , 
11.98, 0.058165, , 
11.99, 0.057674, , 
12.01, 0.057333, , 
12.03, 0.057079, , 
12.04, 0.056908, , 
12.06, 0.056730, , 
12.08, 0.056659, , 
12.09, 0.056742, , 
12.11, 0.056829, , 
12.13, 0.056667, , 
12.14, 0.056258, , 
12.16, 0.056036, , 
12.18, 0.056016, , 
12.19, 0.056020, , 
12.21, 0.055937, , 
12.23, 0.055600, , 
12.24, 0.055287, , 
12.26, 0.055176, , 
12.28, 0.055176, , 
12.30, 0.054978, , 
12.31, 0.054799, , 
12.33, 0.054720, , 
12.34, 0.054767, , 
12.36, 0.054732, , 
12.38, 0.054367, , 
12.39, 0.054113, , 
12.41, 0.054149, , 
12.43, 0.054284, , 
12.44, 0.054331, , 
12.46, 0.054093, , 
12.48, 0.053760, , 
12.49, 0.053641, , 
12.51, 0.053792, , 
12.53, 0.053875, , 
12.54, 0.053653, , 
12.56, 0.053400, , 
12.58, 0.053015, , 
12.59, 0.052408, , 
12.61, 0.051588, , 
12.63, 0.051052, , 
12.64, 0.051143, , 
12.66, 0.051132, , 
12.68, 0.050977, , 
12.69, 0.050676, , 
12.71, 0.050672, , 
12.73, 0.051243, , 
12.74, 0.051952, , 
12.76, 0.052337, , 
12.78, 0.052250, , 
12.79, 0.052119, , 
12.81, 0.052135, , 
12.83, 0.052000, , 
12.84, 0.051802, , 
12.86, 0.051691, , 
12.88, 0.051671, , 
12.89, 0.051750, , 
12.91, 0.051901, , 
12.93, 0.051893, , 
12.94, 0.051710, , 
12.96, 0.051524, , 
12.98, 0.051536, , 
12.99, 0.051516, , 
13.01, 0.051413, , 
13.03, 0.051282, , 
13.04, 0.051255, , 
13.06, 0.051270, , 
13.08, 0.051223, , 
13.09, 0.051017, , 
13.11, 0.050866, , 
13.13, 0.050842, , 
13.14, 0.050933, , 
13.16, 0.050910, , 
13.18, 0.050628, , 
13.19, 0.050442, , 
13.21, 0.050545, , 
13.23, 0.050799, , 
13.24, 0.050842, , 
13.26, 0.050533, , 
13.28, 0.050216, , 
13.29, 0.050121, , 
13.31, 0.050267, , 
13.33, 0.050335, , 
13.34, 0.050275, , 
13.36, 0.050204, , 
13.38, 0.050204, , 
13.39, 0.050172, , 
13.41, 0.050069, , 
13.43, 0.050057, , 
13.44, 0.050121, , 
13.46, 0.050275, , 
13.48, 0.050354, , 
13.49, 0.050208, , 
13.51, 0.050049, , 
13.53, 0.050041, , 
13.54, 0.050243, , 
13.56, 0.050370, , 
13.58, 0.050196, , 
13.59, 0.050025, , 
13.61, 0.050077, , 
13.63, 0.050208, , 
13.64, 0.050267, , 
13.66, 0.050188, , 
13.68, 0.050045, , 
13.69, 0.050077, , 
13.71, 0.050220, , 
13.73, 0.050291, , 
13.74, 0.050180, , 
13.76, 0.050077, , 
13.78, 0.050132, , 
13.79, 0.050208, , 
13.81, 0.050065, , 
13.83, 0.049724, , 
13.84, 0.049680, , 
13.86, 0.049859, , 
13.88, 0.049978, , 
13.89, 0.049986, , 
13.91, 0.049970, , 
13.93, 0.050101, , 
13.94, 0.050327, , 
13.96, 0.050406, , 
13.98, 0.050152, , 
13.99, 0.049966, , 
14.01, 0.049918, , 
14.03, 0.049780, , 
14.05, 0.049756, , 
14.06, 0.049795, , 
14.08, 0.049855, , 
14.09, 0.049962, , 
14.11, 0.050128, , 
14.13, 0.050148, , 
14.14, 0.050128, , 
14.16, 0.050188, , 
14.18, 0.050283, , 
14.19, 0.050224, , 
14.21, 0.050156, , 
14.23, 0.050259, , 
14.24, 0.050477, , 
14.26, 0.050747, , 
14.28, 0.050834, , 
14.29, 0.050656, , 
14.31, 0.050493, , 
14.33, 0.050505, , 
14.34, 0.050703, , 
14.36, 0.050898, , 
14.38, 0.050902, , 
14.39, 0.050858, , 
14.41, 0.050977, , 
14.43, 0.051072, , 
14.45, 0.051175, , 
14.46, 0.051330, , 
14.48, 0.051449, , 
14.49, 0.051584, , 
14.51, 0.051726, , 
14.53, 0.051710, , 
14.54, 0.051742, , 
14.56, 0.051873, , 
14.58, 0.052083, , 
14.59, 0.052174, , 
14.61, 0.052131, , 
14.63, 0.052151, , 
14.64, 0.052381, , 
14.66, 0.052607, , 
14.68, 0.052710, , 
14.69, 0.052622, , 
14.71, 0.052607, , 
14.73, 0.052801, , 
14.74, 0.053066, , 
14.76, 0.053237, , 
14.78, 0.053110, , 
14.79, 0.053027, , 
14.81, 0.053162, , 
14.83, 0.053166, , 
14.85, 0.053094, , 
14.86, 0.053130, , 
14.88, 0.053396, , 
14.89, 0.053729, , 
14.91, 0.054002, , 
14.93, 0.054125, , 
14.94, 0.054232, , 
14.96, 0.054458, , 
14.98, 0.054819, , 
14.99, 0.054985, , 
15.01, 0.054756, , 
15.03, 0.054533, , 
15.04, 0.054664, , 
15.06, 0.055057, , 
15.08, 0.055485, , 
15.09, 0.055636, , 
15.11, 0.055695, , 
15.13, 0.056004, , 
15.14, 0.056373, , 
15.16, 0.056603, , 
15.18, 0.056730, , 
15.19, 0.056869, , 
15.21, 0.056944, , 
15.23, 0.056936, , 
15.24, 0.057008, , 
15.26, 0.057249, , 
15.28, 0.057634, , 
15.29, 0.057991, , 
15.31, 0.058193, , 
15.33, 0.058090, , 
15.34, 0.057995, , 
15.36, 0.058245, , 
15.38, 0.058645, , 
15.39, 0.058887, , 
15.41, 0.058887, , 
15.43, 0.058685, , 
15.44, 0.058748, , 
15.46, 0.059212, , 
15.48, 0.059696, , 
15.49, 0.059858, , 
15.51, 0.059950, , 
15.53, 0.060187, , 
15.54, 0.060386, , 
15.56, 0.060540, , 
15.58, 0.060671, , 
15.59, 0.060802, , 
15.61, 0.061008, , 
15.63, 0.061206, , 
15.64, 0.061290, , 
15.66, 0.061262, , 
15.68, 0.061310, , 
15.69, 0.061635, , 
15.71, 0.061944, , 
15.73, 0.062011, , 
15.74, 0.062071, , 
15.76, 0.062261, , 
15.78, 0.062471, , 
15.79, 0.062602, , 
15.81, 0.062654, , 
15.83, 0.062463, , 
15.84, 0.062471, , 
15.86, 0.062721, , 
15.88, 0.063129, , 
15.89, 0.063260, , 
15.91, 0.063300, , 
15.93, 0.063494, , 
15.94, 0.063653, , 
15.96, 0.063645, , 
15.98, 0.063641, , 
15.99, 0.063740, , 
16.01, 0.063946, , 
16.03, 0.064073, , 
16.04, 0.064033, , 
16.06, 0.063942, , 
16.08, 0.063994, , 
16.09, 0.064172, , 
16.11, 0.064299, , 
16.13, 0.064089, , 
16.14, 0.063918, , 
16.16, 0.063994, , 
16.18, 0.064140, , 
16.20, 0.064160, , 
16.21, 0.064105, , 
16.23, 0.063982, , 
16.24, 0.063974, , 
16.26, 0.064093, , 
16.28, 0.064018, , 
16.29, 0.063950, , 
16.31, 0.063990, , 
16.33, 0.064041, , 
16.34, 0.063903, , 
16.36, 0.063593, , 
16.38, 0.063391, , 
16.39, 0.063391, , 
16.41, 0.063577, , 
16.43, 0.063685, , 
16.44, 0.063439, , 
16.46, 0.063122, , 
16.48, 0.062963, , 
16.49, 0.063074, , 
16.51, 0.063169, , 
16.53, 0.063007, , 
16.54, 0.062753, , 
16.56, 0.062677, , 
16.58, 0.062614, , 
16.60, 0.062404, , 
16.61, 0.062225, , 
16.63, 0.062099, , 
16.64, 0.062015, , 
16.66, 0.061952, , 
16.68, 0.061750, , 
16.69, 0.061504, , 
16.71, 0.061294, , 
16.73, 0.061302, , 
16.74, 0.061262, , 
16.76, 0.060965, , 
16.78, 0.060667, , 
16.79, 0.060465, , 
16.81, 0.060330, , 
16.83, 0.059914, , 
16.84, 0.059391, , 
16.86, 0.059180, , 
16.88, 0.059176, , 
16.89, 0.059276, , 
16.91, 0.059303, , 
16.93, 0.058946, , 
16.94, 0.058566, , 
16.96, 0.058387, , 
16.98, 0.058280, , 
17.00, 0.057959, , 
17.01, 0.057729, , 
17.03, 0.057495, , 
17.04, 0.057368, , 
17.06, 0.057349, , 
17.08, 0.057051, , 
17.09, 0.056766, , 
17.11, 0.056607, , 
17.13, 0.056536, , 
17.14, 0.056314, , 
17.16, 0.055874, , 
17.18, 0.055513, , 
17.19, 0.055263, , 
17.21, 0.055267, , 
17.23, 0.055219, , 
17.24, 0.054898, , 
17.26, 0.054565, , 
17.28, 0.054438, , 
17.29, 0.054407, , 
17.31, 0.054212, , 
17.33, 0.053982, , 
17.34, 0.053812, , 
17.36, 0.053633, , 
17.38, 0.053411, , 
17.39, 0.053102, , 
17.41, 0.052860, , 
17.43, 0.052765, , 
17.44, 0.052753, , 
17.46, 0.052650, , 
17.48, 0.052222, , 
17.49, 0.051794, , 
17.51, 0.051560, , 
17.53, 0.051528, , 
17.54, 0.051492, , 
17.56, 0.051136, , 
17.58, 0.050711, , 
17.59, 0.050426, , 
17.61, 0.050283, , 
17.63, 0.049938, , 
17.64, 0.049625, , 
17.66, 0.049443, , 
17.68, 0.049462, , 
17.69, 0.049387, , 
17.71, 0.049205, , 
17.73, 0.049030, , 
17.74, 0.048911, , 
17.76, 0.048895, , 
17.78, 0.048772, , 
17.79, 0.048431, , 
17.81, 0.048094, , 
17.83, 0.047658, , 
17.84, 0.047531, , 
17.86, 0.047575, , 
17.88, 0.047468, , 
17.89, 0.047282, , 
17.91, 0.047194, , 
17.93, 0.047226, , 
17.94, 0.047194, , 
17.96, 0.046984, , 
17.98, 0.046782, , 
17.99, 0.046691, , 
18.01, 0.046671, , 
18.03, 0.046524, , 
18.04, 0.046279, , 
18.06, 0.045981, , 
18.08, 0.045910, , 
18.09, 0.045910, , 
18.11, 0.045827, , 
18.13, 0.045692, , 
18.14, 0.045557, , 
18.16, 0.045458, , 
18.18, 0.045398, , 
18.19, 0.045220, , 
18.21, 0.045069, , 
18.23, 0.044990, , 
18.24, 0.045041, , 
18.26, 0.045077, , 
18.28, 0.044780, , 
18.29, 0.044514, , 
18.31, 0.044459, , 
18.33, 0.044471, , 
18.34, 0.044494, , 
18.36, 0.044367, , 
18.38, 0.044106, , 
18.39, 0.043955, , 
18.41, 0.043951, , 
18.43, 0.043832, , 
18.44, 0.043725, , 
18.46, 0.043717, , 
18.48, 0.043773, , 
18.49, 0.043622, , 
18.51, 0.043257, , 
18.53, 0.043083, , 
18.54, 0.043115, , 
18.56, 0.043273, , 
18.58, 0.043269, , 
18.59, 0.042916, , 
18.61, 0.042274, , 
18.63, 0.041338, , 
18.64, 0.040636, , 
18.66, 0.040280, , 
18.68, 0.040474, , 
18.69, 0.040434, , 
18.71, 0.040292, , 
18.73, 0.040125, , 
18.75, 0.040073, , 
18.76, 0.040585, , 
18.78, 0.041168, , 
18.79, 0.041663, , 
18.81, 0.041870, , 
18.83, 0.041493, , 
18.84, 0.041184, , 
18.86, 0.041132, , 
18.88, 0.041457, , 
18.89, 0.041719, , 
18.91, 0.041679, , 
18.93, 0.041564, , 
18.94, 0.041552, , 
18.96, 0.041505, , 
18.98, 0.041461, , 
18.99, 0.041287, , 
19.01, 0.041148, , 
19.03, 0.041148, , 
19.04, 0.041279, , 
19.06, 0.041378, , 
19.08, 0.041247, , 
19.09, 0.041104, , 
19.11, 0.041164, , 
19.13, 0.041307, , 
19.15, 0.041239, , 
19.16, 0.041045, , 
19.18, 0.040839, , 
19.19, 0.040751, , 
19.21, 0.040823, , 
19.23, 0.040775, , 
19.24, 0.040668, , 
19.26, 0.040708, , 
19.28, 0.040847, , 
19.29, 0.040890, , 
19.31, 0.040744, , 
19.33, 0.040629, , 
19.34, 0.040656, , 
19.36, 0.040835, , 
19.38, 0.040942, , 
19.39, 0.040851, , 
19.41, 0.040692, , 
19.43, 0.040577, , 
19.44, 0.040736, , 
19.46, 0.040835, , 
19.48, 0.040827, , 
19.49, 0.040712, , 
19.51, 0.040601, , 
19.53, 0.040478, , 
19.54, 0.040232, , 
19.56, 0.040137, , 
19.58, 0.040196, , 
19.59, 0.040331, , 
19.61, 0.040430, , 
19.63, 0.040307, , 
19.64, 0.040105, , 
19.66, 0.040042, , 
19.68, 0.040248, , 
19.69, 0.040414, , 
19.71, 0.040355, , 
19.73, 0.040240, , 
19.74, 0.040232, , 
19.76, 0.040280, , 
19.78, 0.040288, , 
19.79, 0.040232, , 
19.81, 0.040141, , 
19.83, 0.039931, , 
19.84, 0.039863, , 
19.86, 0.039887, , 
19.88, 0.039915, , 
19.89, 0.039954, , 
19.91, 0.040184, , 
19.93, 0.040327, , 
19.94, 0.040284, , 
19.96, 0.040192, , 
19.98, 0.040184, , 
19.99, 0.040252, , 
20.01, 0.040315, , 
20.03, 0.040236, , 
20.04, 0.040109, , 
20.06, 0.040188, , 
20.08, 0.040510, , 
20.09, 0.040771, , 
20.11, 0.040712, , 
20.13, 0.040593, , 
20.14, 0.040668, , 
20.16, 0.040795, , 
20.18, 0.040823, , 
20.19, 0.040755, , 
20.21, 0.040656, , 
20.23, 0.040652, , 
20.24, 0.040791, , 
20.26, 0.040886, , 
20.28, 0.040898, , 
20.29, 0.040962, , 
20.31, 0.041184, , 
20.33, 0.041283, , 
20.34, 0.041136, , 
20.36, 0.041077, , 
20.38, 0.041168, , 
20.39, 0.041433, , 
20.41, 0.041735, , 
20.43, 0.041762, , 
20.44, 0.041588, , 
20.46, 0.041620, , 
20.48, 0.041893, , 
20.49, 0.042127, , 
20.51, 0.042222, , 
20.53, 0.042310, , 
20.54, 0.042480, , 
20.56, 0.042599, , 
20.58, 0.042587, , 
20.59, 0.042698, , 
20.61, 0.042865, , 
20.63, 0.043115, , 
20.64, 0.043344, , 
20.66, 0.043440, , 
20.68, 0.043408, , 
20.69, 0.043503, , 
20.71, 0.043904, , 
20.73, 0.044233, , 
20.74, 0.044375, , 
20.76, 0.044494, , 
20.78, 0.044736, , 
20.79, 0.044962, , 
20.81, 0.045188, , 
20.83, 0.045176, , 
20.84, 0.045299, , 
20.86, 0.045688, , 
20.88, 0.046171, , 
20.90, 0.046604, , 
20.91, 0.046842, , 
20.93, 0.047083, , 
20.94, 0.047551, , 
20.96, 0.048039, , 
20.98, 0.048471, , 
20.99, 0.048840, , 
21.01, 0.049308, , 
21.03, 0.049827, , 
21.04, 0.050275, , 
21.06, 0.050707, , 
21.08, 0.051104, , 
21.09, 0.051627, , 
21.11, 0.052345, , 
21.13, 0.053051, , 
21.14, 0.053495, , 
21.16, 0.053840, , 
21.18, 0.054391, , 
21.19, 0.055045, , 
21.21, 0.055771, , 
21.23, 0.056536, , 
21.24, 0.057099, , 
21.26, 0.057761, , 
21.28, 0.058598, , 
21.30, 0.059525, , 
21.31, 0.060203, , 
21.33, 0.060893, , 
21.34, 0.061730, , 
21.36, 0.062499, , 
21.38, 0.063264, , 
21.39, 0.063958, , 
21.41, 0.064799, , 
21.43, 0.065802, , 
21.44, 0.066864, , 
21.46, 0.067852, , 
21.48, 0.068510, , 
21.49, 0.069319, , 
21.51, 0.070488, , 
21.53, 0.071658, , 
21.54, 0.072768, , 
21.56, 0.073656, , 
21.58, 0.074644, , 
21.59, 0.075674, , 
21.61, 0.076769, , 
21.63, 0.078069, , 
21.64, 0.079156, , 
21.66, 0.080321, , 
21.68, 0.081519, , 
21.70, 0.082799, , 
21.71, 0.083644, , 
21.73, 0.084683, , 
21.74, 0.085955, , 
21.76, 0.087252, , 
21.78, 0.088485, , 
21.79, 0.089508, , 
21.81, 0.090713, , 
21.83, 0.091689, , 
21.84, 0.092823, , 
21.86, 0.094084, , 
21.88, 0.095285, , 
21.89, 0.096704, , 
21.91, 0.098112, , 
21.93, 0.099646, , 
21.94, 0.100677, , 
21.96, 0.101728, , 
21.98, 0.103040, , 
21.99, 0.104361, , 
22.01, 0.105617, , 
22.03, 0.106430, , 
22.04, 0.107477, , 
22.06, 0.108730, , 
22.08, 0.110098, , 
22.09, 0.111644, , 
22.11, 0.112790, , 
22.13, 0.114019, , 
22.14, 0.115343, , 
22.16, 0.116612, , 
22.18, 0.117730, , 
22.19, 0.118587, , 
22.21, 0.119586, , 
22.23, 0.120617, , 
22.24, 0.121802, , 
22.26, 0.123194, , 
22.28, 0.124197, , 
22.29, 0.125149, , 
22.31, 0.126295, , 
22.33, 0.127643, , 
22.34, 0.128638, , 
22.36, 0.129570, , 
22.38, 0.130497, , 
22.39, 0.131389, , 
22.41, 0.132345, , 
22.43, 0.133114, , 
22.44, 0.133915, , 
22.46, 0.134910, , 
22.48, 0.135929, , 
22.49, 0.136849, , 
22.51, 0.137456, , 
22.53, 0.138066, , 
22.54, 0.138875, , 
22.56, 0.139712, , 
22.58, 0.140422, , 
22.59, 0.140866, , 
22.61, 0.141413, , 
22.63, 0.142031, , 
22.64, 0.142642, , 
22.66, 0.143316, , 
22.68, 0.143871, , 
22.69, 0.144434, , 
22.71, 0.145088, , 
22.73, 0.145750, , 
22.74, 0.146095, , 
22.76, 0.146397, , 
22.78, 0.146904, , 
22.79, 0.147412, , 
22.81, 0.147725, , 
22.83, 0.147582, , 
22.84, 0.147650, , 
22.86, 0.148026, , 
22.88, 0.148506, , 
22.89, 0.148875, , 
22.91, 0.149049, , 
22.93, 0.149283, , 
22.94, 0.149577, , 
22.96, 0.149787, , 
22.98, 0.149628, , 
22.99, 0.149442, , 
23.01, 0.149521, , 
23.03, 0.149672, , 
23.05, 0.149727, , 
23.06, 0.149688, , 
23.08, 0.149505, , 
23.09, 0.149366, , 
23.11, 0.149370, , 
23.13, 0.149232, , 
23.14, 0.149017, , 
23.16, 0.148835, , 
23.18, 0.148720, , 
23.19, 0.148554, , 
23.21, 0.148106, , 
23.23, 0.147713, , 
23.24, 0.147459, , 
23.26, 0.147467, , 
23.28, 0.147416, , 
23.29, 0.147023, , 
23.31, 0.146504, , 
23.33, 0.146048, , 
23.34, 0.145850, , 
23.36, 0.145604, , 
23.38, 0.145084, , 
23.39, 0.144640, , 
23.41, 0.144367, , 
23.43, 0.144022, , 
23.45, 0.143494, , 
23.46, 0.143090, , 
23.48, 0.142741, , 
23.49, 0.142448, , 
23.51, 0.142071, , 
23.53, 0.141433, , 
23.54, 0.140810, , 
23.56, 0.140291, , 
23.58, 0.140009, , 
23.59, 0.139625, , 
23.61, 0.138970, , 
23.63, 0.138288, , 
23.64, 0.137714, , 
23.66, 0.137238, , 
23.68, 0.136726, , 
23.69, 0.136084, , 
23.71, 0.135481, , 
23.73, 0.134930, , 
23.74, 0.134510, , 
23.76, 0.134006, , 
23.78, 0.133178, , 
23.79, 0.132527, , 
23.81, 0.132036, , 
23.83, 0.131409, , 
23.85, 0.130537, , 
23.86, 0.129918, , 
23.88, 0.129451, , 
23.89, 0.129054, , 
23.91, 0.128697, , 
23.93, 0.127984, , 
23.94, 0.127317, , 
23.96, 0.126683, , 
23.98, 0.126180, , 
23.99, 0.125593, , 
24.01, 0.124518, , 
24.03, 0.123777, , 
24.04, 0.123257, , 
24.06, 0.122873, , 
24.08, 0.122369, , 
24.09, 0.121648, , 
24.11, 0.120851, , 
24.13, 0.120351, , 
24.14, 0.119911, , 
24.16, 0.119158, , 
24.18, 0.118408, , 
24.19, 0.117806, , 
24.21, 0.117302, , 
24.23, 0.116719, , 
24.24, 0.115879, , 
24.26, 0.115189, , 
24.28, 0.114598, , 
24.29, 0.114170, , 
24.31, 0.113789, , 
24.33, 0.112976, , 
24.34, 0.112187, , 
24.36, 0.111676, , 
24.38, 0.111224, , 
24.39, 0.110752, , 
24.41, 0.110090, , 
24.43, 0.109404, , 
24.44, 0.108825, , 
24.46, 0.108409, , 
24.48, 0.107790, , 
24.49, 0.107207, , 
24.51, 0.106648, , 
24.53, 0.106244, , 
24.54, 0.105701, , 
24.56, 0.104844, , 
24.58, 0.104170, , 
24.59, 0.103607, , 
24.61, 0.103294, , 
24.63, 0.103013, , 
24.64, 0.102101, , 
24.66, 0.100871, , 
24.68, 0.099559, , 
24.69, 0.098952, , 
24.71, 0.098500, , 
24.73, 0.097648, , 
24.74, 0.096966, , 
24.76, 0.096383, , 
24.78, 0.095880, , 
24.79, 0.095872, , 
24.81, 0.096098, , 
24.83, 0.095836, , 
24.84, 0.095566, , 
24.86, 0.095420, , 
24.88, 0.095162, , 
24.89, 0.094698, , 
24.91, 0.094175, , 
24.93, 0.093953, , 
24.94, 0.093727, , 
24.96, 0.093219, , 
24.98, 0.092692, , 
24.99, 0.092268, , 
25.01, 0.091994, , 
25.03, 0.091705, , 
25.04, 0.091225, , 
25.06, 0.090741, , 
25.08, 0.090345, , 
25.09, 0.090091, , 
25.11, 0.089873, , 
25.13, 0.089286, , 
25.14, 0.088771, , 
25.16, 0.088438, , 
25.18, 0.088172, , 
25.20, 0.087736, , 
25.21, 0.087319, , 
25.23, 0.086895, , 
25.24, 0.086566, , 
25.26, 0.086328, , 
25.28, 0.085840, , 
25.29, 0.085420, , 
25.31, 0.085218, , 
25.33, 0.085162, , 
25.34, 0.084936, , 
25.36, 0.084350, , 
25.38, 0.083854, , 
25.39, 0.083509, , 
25.41, 0.083275, , 
25.43, 0.082902, , 
25.44, 0.082431, , 
25.46, 0.081979, , 
25.48, 0.081796, , 
25.49, 0.081895, , 
25.51, 0.081856, , 
25.53, 0.081539, , 
25.54, 0.081205, , 
25.56, 0.080991, , 
25.58, 0.080750, , 
25.60, 0.080290, , 
25.61, 0.080052, , 
25.63, 0.079945, , 
25.64, 0.079913, , 
25.66, 0.079762, , 
25.68, 0.079346, , 
25.69, 0.078914, , 
25.71, 0.078601, , 
25.73, 0.078652, , 
25.74, 0.078656, , 
25.76, 0.078363, , 
25.78, 0.078026, , 
25.79, 0.077772, , 
25.81, 0.077490, , 
25.83, 0.077054, , 
25.84, 0.076685, , 
25.86, 0.076555, , 
25.88, 0.076598, , 
25.89, 0.076685, , 
25.91, 0.076634, , 
25.93, 0.076249, , 
25.94, 0.075996, , 
25.96, 0.076079, , 
25.98, 0.076111, , 
26.00, 0.075797, , 
26.01, 0.075555, , 
26.03, 0.075421, , 
26.04, 0.075385, , 
26.06, 0.075401, , 
26.08, 0.075195, , 
26.09, 0.074889, , 
26.11, 0.074691, , 
26.13, 0.074719, , 
26.14, 0.074707, , 
26.16, 0.074366, , 
26.18, 0.074092, , 
26.19, 0.073973, , 
26.21, 0.074061, , 
26.23, 0.074120, , 
26.24, 0.074069, , 
26.26, 0.073926, , 
26.28, 0.073807, , 
26.29, 0.073799, , 
26.31, 0.073696, , 
26.33, 0.073510, , 
26.34, 0.073494, , 
26.36, 0.073656, , 
26.38, 0.073593, , 
26.39, 0.073280, , 
26.41, 0.073216, , 
26.43, 0.073303, , 
26.44, 0.073502, , 
26.46, 0.073656, , 
26.48, 0.073537, , 
26.49, 0.073315, , 
26.51, 0.073236, , 
26.53, 0.073494, , 
26.54, 0.073771, , 
26.56, 0.073882, , 
26.58, 0.073847, , 
26.59, 0.073882, , 
26.61, 0.073910, , 
26.63, 0.073851, , 
26.64, 0.073993, , 
26.66, 0.074211, , 
26.68, 0.074501, , 
26.69, 0.074782, , 
26.71, 0.074850, , 
26.73, 0.074850, , 
26.74, 0.074965, , 
26.76, 0.075341, , 
26.78, 0.075718, , 
26.79, 0.075936, , 
26.81, 0.076099, , 
26.83, 0.076170, , 
26.84, 0.076245, , 
26.86, 0.076555, , 
26.88, 0.077118, , 
26.89, 0.077625, , 
26.91, 0.078164, , 
26.93, 0.078719, , 
26.94, 0.079148, , 
26.96, 0.079505, , 
26.98, 0.079917, , 
26.99, 0.080516, , 
27.01, 0.081186, , 
27.03, 0.081899, , 
27.04, 0.082486, , 
27.06, 0.083089, , 
27.08, 0.083838, , 
27.09, 0.084722, , 
27.11, 0.085583, , 
27.13, 0.086336, , 
27.14, 0.087224, , 
27.16, 0.088291, , 
27.18, 0.089310, , 
27.19, 0.090337, , 
27.21, 0.091419, , 
27.23, 0.092676, , 
27.24, 0.094080, , 
27.26, 0.095515, , 
27.28, 0.097093, , 
27.29, 0.098405, , 
27.31, 0.099936, , 
27.33, 0.101779, , 
27.34, 0.103595, , 
27.36, 0.105717, , 
27.38, 0.107584, , 
27.39, 0.109586, , 
27.41, 0.111521, , 
27.43, 0.113777, , 
27.44, 0.115851, , 
27.46, 0.118222, , 
27.48, 0.120863, , 
27.49, 0.123495, , 
27.51, 0.126390, , 
27.53, 0.128757, , 
27.54, 0.131334, , 
27.56, 0.134411, , 
27.58, 0.137551, , 
27.59, 0.141195, , 
27.61, 0.144367, , 
27.63, 0.147697, , 
27.64, 0.151083, , 
27.66, 0.154541, , 
27.68, 0.158847, , 
27.69, 0.162578, , 
27.71, 0.166483, , 
27.73, 0.170515, , 
27.75, 0.175253, , 
27.76, 0.179234, , 
27.78, 0.183354, , 
27.79, 0.187830, , 
27.81, 0.192330, , 
27.83, 0.197346, , 
27.84, 0.201620, , 
27.86, 0.206287, , 
27.88, 0.211227, , 
27.89, 0.216104, , 
27.91, 0.221821, , 
27.93, 0.226405, , 
27.94, 0.231115, , 
27.96, 0.236135, , 
27.98, 0.241130, , 
27.99, 0.246773, , 
28.01, 0.251455, , 
28.03, 0.256336, , 
28.04, 0.261197, , 
28.06, 0.265959, , 
28.08, 0.271605, , 
28.09, 0.276291, , 
28.11, 0.281014, , 
28.13, 0.285863, , 
28.15, 0.291406, , 
28.16, 0.295890, , 
28.18, 0.300481, , 
28.19, 0.305160, , 
28.21, 0.309728, , 
28.23, 0.314807, , 
28.24, 0.318978, , 
28.26, 0.323129, , 
28.28, 0.327300, , 
28.29, 0.331511, , 
28.31, 0.336292, , 
28.33, 0.340012, , 
28.34, 0.343683, , 
28.36, 0.347581, , 
28.38, 0.351300, , 
28.39, 0.355443, , 
28.41, 0.358837, , 
28.43, 0.362298, , 
28.44, 0.365629, , 
28.46, 0.368686, , 
28.48, 0.372238, , 
28.49, 0.375188, , 
28.51, 0.378174, , 
28.53, 0.381021, , 
28.55, 0.383943, , 
28.56, 0.386080, , 
28.58, 0.388197, , 
28.59, 0.390529, , 
28.61, 0.392801, , 
28.63, 0.395148, , 
28.64, 0.396908, , 
28.66, 0.398653, , 
28.68, 0.399834, , 
28.69, 0.401777, , 
28.71, 0.403522, , 
28.73, 0.404826, , 
28.74, 0.406107, , 
28.76, 0.407372, , 
28.78, 0.408494, , 
28.79, 0.409136, , 
28.81, 0.409616, , 
28.83, 0.410064, , 
28.84, 0.410623, , 
28.86, 0.411146, , 
28.88, 0.411479, , 
28.89, 0.411888, , 
28.91, 0.412201, , 
28.93, 0.412300, , 
28.94, 0.412213, , 
28.96, 0.411983, , 
28.98, 0.411745, , 
28.99, 0.411511, , 
29.01, 0.411075, , 
29.03, 0.410084, , 
29.04, 0.409235, , 
29.06, 0.408621, , 
29.08, 0.408077, , 
29.09, 0.407328, , 
29.11, 0.406182, , 
29.13, 0.405072, , 
29.14, 0.403934, , 
29.16, 0.402859, , 
29.18, 0.401385, , 
29.19, 0.400052, , 
29.21, 0.398597, , 
29.23, 0.397079, , 
29.24, 0.395461, , 
29.26, 0.393387, , 
29.28, 0.391829, , 
29.29, 0.390326, , 
29.31, 0.388907, , 
29.33, 0.387361, , 
29.34, 0.385200, , 
29.36, 0.383138, , 
29.38, 0.381041, , 
29.39, 0.379205, , 
29.41, 0.377393, , 
29.43, 0.374954, , 
29.44, 0.372813, , 
29.46, 0.370712, , 
29.48, 0.368515, , 
29.49, 0.366243, , 
29.51, 0.363547, , 
29.53, 0.361271, , 
29.54, 0.359067, , 
29.56, 0.356874, , 
29.58, 0.353964, , 
29.59, 0.351399, , 
29.61, 0.348901, , 
29.63, 0.346692, , 
29.64, 0.344540, , 
29.66, 0.341653, , 
29.68, 0.339163, , 
29.69, 0.336768, , 
29.71, 0.334373, , 
29.73, 0.331959, , 
29.74, 0.329076, , 
29.76, 0.326674, , 
29.78, 0.324267, , 
29.79, 0.321888, , 
29.81, 0.319422, , 
29.83, 0.315988, , 
29.84, 0.313344, , 
29.86, 0.311159, , 
29.88, 0.309061, , 
29.90, 0.306349, , 
29.91, 0.304042, , 
29.93, 0.301782, , 
29.94, 0.299617, , 
29.96, 0.297484, , 
29.98, 0.294601, , 
29.99, 0.292199, , 
30.01, 0.290121, , 
30.03, 0.288238, , 
30.04, 0.286664, , 
30.06, 0.283404, , 
30.08, 0.281164, , 
30.09, 0.279138, , 
30.11, 0.277215, , 
30.13, 0.275264, , 
30.14, 0.272858, , 
30.16, 0.270804, , 
30.18, 0.268829, , 
30.19, 0.267006, , 
30.21, 0.265221, , 
30.23, 0.263148, , 
30.24, 0.261585, , 
30.26, 0.260122, , 
30.28, 0.258877, , 
30.30, 0.256312, , 
30.31, 0.254615, , 
30.33, 0.253037, , 
30.34, 0.251689, , 
30.36, 0.250456, , 
30.38, 0.248660, , 
30.39, 0.247058, , 
30.41, 0.245631, , 
30.43, 0.244536, , 
30.44, 0.243486, , 
30.46, 0.241955, , 
30.48, 0.240413, , 
30.49, 0.238847, , 
30.51, 0.237288, , 
30.53, 0.235722, , 
30.54, 0.233938, , 
30.56, 0.232487, , 
30.58, 0.231079, , 
30.59, 0.229672, , 
30.61, 0.228209, , 
30.63, 0.226278, , 
30.64, 0.224743, , 
30.66, 0.223506, , 
30.68, 0.222111, , 
30.70, 0.219704, , 
30.71, 0.217369, , 
30.73, 0.215644, , 
30.74, 0.213927, , 
30.76, 0.212508, , 
30.78, 0.210593, , 
30.79, 0.208923, , 
30.81, 0.207579, , 
30.83, 0.206711, , 
30.84, 0.205978, , 
30.86, 0.204907, , 
30.88, 0.204078, , 
30.89, 0.203353, , 
30.91, 0.202560, , 
30.93, 0.201346, , 
30.94, 0.200260, , 
30.96, 0.199205, , 
30.98, 0.198385, , 
30.99, 0.197508, , 
31.01, 0.196176, , 
31.03, 0.195050, , 
31.04, 0.194158, , 
31.06, 0.193286, , 
31.08, 0.192406, , 
31.09, 0.191228, , 
31.11, 0.190146, , 
31.13, 0.189139, , 
31.14, 0.188338, , 
31.16, 0.187545, , 
31.18, 0.186212, , 
31.19, 0.185130, , 
31.21, 0.184369, , 
31.23, 0.183655, , 
31.24, 0.182834, , 
31.26, 0.181784, , 
31.28, 0.180860, , 
31.29, 0.180059, , 
31.31, 0.179436, , 
31.33, 0.178548, , 
31.34, 0.177743, , 
31.36, 0.177014, , 
31.38, 0.176391, , 
31.39, 0.175630, , 
31.41, 0.174563, , 
31.43, 0.173763, , 
31.44, 0.173172, , 
31.46, 0.172799, , 
31.48, 0.172367, , 
31.49, 0.171510, , 
31.51, 0.170583, , 
31.53, 0.169683, , 
31.54, 0.169072, , 
31.56, 0.168513, , 
31.58, 0.167720, , 
31.59, 0.167066, , 
31.61, 0.166483, , 
31.63, 0.165789, , 
31.64, 0.165095, , 
31.66, 0.164366, , 
31.68, 0.163771, , 
31.69, 0.163259, , 
31.71, 0.162712, , 
31.73, 0.161848, , 
31.74, 0.160960, , 
31.76, 0.160206, , 
31.78, 0.159754, , 
31.79, 0.159287, , 
31.81, 0.158498, , 
31.83, 0.157566, , 
31.84, 0.156713, , 
31.86, 0.156059, , 
31.88, 0.155492, , 
31.89, 0.154890, , 
31.91, 0.154354, , 
31.93, 0.153815, , 
31.94, 0.153367, , 
31.96, 0.152915, , 
31.98, 0.152027, , 
31.99, 0.151317, , 
32.01, 0.151004, , 
32.03, 0.150718, , 
32.05, 0.150040, , 
32.06, 0.149462, , 
32.08, 0.148954, , 
32.09, 0.148530, , 
32.11, 0.148201, , 
32.13, 0.147574, , 
32.14, 0.147011, , 
32.16, 0.146520, , 
32.18, 0.146123, , 
32.19, 0.145624, , 
32.21, 0.144791, , 
32.23, 0.144164, , 
32.24, 0.143740, , 
32.26, 0.143435, , 
32.28, 0.142987, , 
32.29, 0.142281, , 
32.31, 0.141670, , 
32.33, 0.141179, , 
32.34, 0.140822, , 
32.36, 0.140251, , 
32.38, 0.139248, , 
32.39, 0.138514, , 
32.41, 0.137979, , 
32.43, 0.137190, , 
32.45, 0.136250, , 
32.46, 0.135739, , 
32.48, 0.135350, , 
32.49, 0.135101, , 
32.51, 0.134859, , 
32.53, 0.134288, , 
32.54, 0.133531, , 
32.56, 0.132821, , 
32.58, 0.132393, , 
32.59, 0.132119, , 
32.61, 0.131429, , 
32.63, 0.130660, , 
32.64, 0.130196, , 
32.66, 0.129899, , 
32.68, 0.129601, , 
32.69, 0.129153, , 
32.71, 0.128729, , 
32.73, 0.128404, , 
32.74, 0.128107, , 
32.76, 0.127686, , 
32.78, 0.126905, , 
32.79, 0.126410, , 
32.81, 0.126223, , 
32.83, 0.125886, , 
32.85, 0.125085, , 
32.86, 0.124372, , 
32.88, 0.123820, , 
32.89, 0.123567, , 
32.91, 0.123523, , 
32.93, 0.123194, , 
32.94, 0.122750, , 
32.96, 0.122393, , 
32.98, 0.122207, , 
32.99, 0.121957, , 
33.01, 0.121481, , 
33.03, 0.121156, , 
33.04, 0.120898, , 
33.06, 0.120724, , 
33.08, 0.120534, , 
33.09, 0.120129, , 
33.11, 0.119725, , 
33.13, 0.119503, , 
33.14, 0.119495, , 
33.16, 0.119158, , 
33.18, 0.118722, , 
33.19, 0.118385, , 
33.21, 0.118226, , 
33.23, 0.117960, , 
33.24, 0.117492, , 
33.26, 0.117171, , 
33.28, 0.116921, , 
33.29, 0.116775, , 
33.31, 0.116553, , 
33.33, 0.116089, , 
33.34, 0.115676, , 
33.36, 0.115058, , 
33.38, 0.114776, , 
33.39, 0.114424, , 
33.41, 0.113964, , 
33.43, 0.113607, , 
33.44, 0.113381, , 
33.46, 0.113024, , 
33.48, 0.112394, , 
33.49, 0.111934, , 
33.51, 0.111593, , 
33.53, 0.111402, , 
33.54, 0.111212, , 
33.56, 0.110792, , 
33.58, 0.110268, , 
33.59, 0.109773, , 
33.61, 0.109717, , 
33.63, 0.109654, , 
33.64, 0.109325, , 
33.66, 0.109027, , 
33.68, 0.108793, , 
33.69, 0.108571, , 
33.71, 0.108361, , 
33.73, 0.108092, , 
33.74, 0.107810, , 
33.76, 0.107659, , 
33.78, 0.107529, , 
33.79, 0.107259, , 
33.81, 0.106870, , 
33.83, 0.106295, , 
33.84, 0.106089, , 
33.86, 0.106077, , 
33.88, 0.105907, , 
33.89, 0.105764, , 
33.91, 0.105629, , 
33.93, 0.105625, , 
33.94, 0.105812, , 
33.96, 0.105693, , 
33.98, 0.105419, , 
33.99, 0.105280, , 
34.01, 0.105348, , 
34.03, 0.105261, , 
34.04, 0.104908, , 
34.06, 0.104777, , 
34.08, 0.104725, , 
34.09, 0.104682, , 
34.11, 0.104602, , 
34.13, 0.104456, , 
34.14, 0.104246, , 
34.16, 0.104032, , 
34.18, 0.103984, , 
34.19, 0.103821, , 
34.21, 0.103508, , 
34.23, 0.103350, , 
34.24, 0.103314, , 
34.26, 0.103211, , 
34.28, 0.102735, , 
34.29, 0.102394, , 
34.31, 0.102283, , 
34.33, 0.102303, , 
34.34, 0.102263, , 
34.36, 0.102045, , 
34.38, 0.101704, , 
34.39, 0.101351, , 
34.41, 0.101355, , 
34.43, 0.101391, , 
34.44, 0.101323, , 
34.46, 0.101205, , 
34.48, 0.101101, , 
34.49, 0.100919, , 
34.51, 0.100685, , 
34.53, 0.100495, , 
34.54, 0.100416, , 
34.56, 0.100519, , 
34.58, 0.100586, , 
34.60, 0.100356, , 
34.61, 0.099995, , 
34.63, 0.099706, , 
34.64, 0.099821, , 
34.66, 0.099995, , 
34.68, 0.099928, , 
34.69, 0.099706, , 
34.71, 0.099515, , 
34.73, 0.099401, , 
34.74, 0.099293, , 
34.76, 0.099206, , 
34.78, 0.099016, , 
34.79, 0.098881, , 
34.81, 0.098794, , 
34.83, 0.098449, , 
34.84, 0.097834, , 
34.86, 0.097648, , 
34.88, 0.097894, , 
34.89, 0.098124, , 
34.91, 0.098048, , 
34.93, 0.097815, , 
34.94, 0.097664, , 
34.96, 0.097672, , 
34.98, 0.097791, , 
35.00, 0.097589, , 
35.01, 0.097378, , 
35.03, 0.097279, , 
35.04, 0.097331, , 
35.06, 0.097252, , 
35.08, 0.096915, , 
35.09, 0.096744, , 
35.11, 0.096649, , 
35.13, 0.096625, , 
35.14, 0.096629, , 
35.16, 0.096506, , 
35.18, 0.096221, , 
35.19, 0.095907, , 
35.21, 0.095923, , 
35.23, 0.095927, , 
35.24, 0.095832, , 
35.26, 0.095773, , 
35.28, 0.095753, , 
35.29, 0.095642, , 
35.31, 0.095388, , 
35.33, 0.095158, , 
35.34, 0.095023, , 
35.36, 0.095047, , 
35.38, 0.095122, , 
35.39, 0.094960, , 
35.41, 0.094666, , 
35.43, 0.094405, , 
35.44, 0.094444, , 
35.46, 0.094551, , 
35.48, 0.094512, , 
35.49, 0.094428, , 
35.51, 0.094444, , 
35.53, 0.094329, , 
35.54, 0.094048, , 
35.56, 0.093869, , 
35.58, 0.093818, , 
35.59, 0.093822, , 
35.61, 0.093774, , 
35.63, 0.093552, , 
35.64, 0.093283, , 
35.66, 0.093096, , 
35.68, 0.093219, , 
35.69, 0.093298, , 
35.71, 0.093100, , 
35.73, 0.092898, , 
35.74, 0.092843, , 
35.76, 0.092846, , 
35.78, 0.092843, , 
35.79, 0.092799, , 
35.81, 0.092601, , 
35.83, 0.092280, , 
35.84, 0.092307, , 
35.86, 0.092482, , 
35.88, 0.092513, , 
35.89, 0.092513, , 
35.91, 0.092684, , 
35.93, 0.092870, , 
35.94, 0.092843, , 
35.96, 0.092613, , 
35.98, 0.092387, , 
35.99, 0.092283, , 
36.01, 0.092268, , 
36.03, 0.091681, , 
36.04, 0.091534, , 
36.06, 0.091732, , 
36.08, 0.092141, , 
36.09, 0.092406, , 
36.11, 0.092478, , 
36.13, 0.092521, , 
36.14, 0.092609, , 
36.16, 0.092803, , 
36.18, 0.092997, , 
36.19, 0.092934, , 
36.21, 0.092759, , 
36.23, 0.092620, , 
36.24, 0.092747, , 
36.26, 0.092874, , 
36.28, 0.092807, , 
36.29, 0.092755, , 
36.31, 0.092862, , 
36.33, 0.092854, , 
36.34, 0.092712, , 
36.36, 0.092632, , 
36.38, 0.092672, , 
36.39, 0.092942, , 
36.41, 0.093279, , 
36.43, 0.093374, , 
36.44, 0.093180, , 
36.46, 0.092997, , 
36.48, 0.093152, , 
36.49, 0.093362, , 
36.51, 0.093406, , 
36.53, 0.093366, , 
36.54, 0.093501, , 
36.56, 0.093580, , 
36.58, 0.093616, , 
36.59, 0.093632, , 
36.61, 0.093699, , 
36.63, 0.093838, , 
36.64, 0.093961, , 
36.66, 0.093941, , 
36.68, 0.093731, , 
36.69, 0.093754, , 
36.71, 0.093953, , 
36.73, 0.093774, , 
36.75, 0.092946, , 
36.76, 0.092494, , 
36.78, 0.092121, , 
36.79, 0.091835, , 
36.81, 0.091986, , 
36.83, 0.092168, , 
36.84, 0.092311, , 
36.86, 0.092946, , 
36.88, 0.093774, , 
36.89, 0.094282, , 
36.91, 0.094571, , 
36.93, 0.094833, , 
36.94, 0.095087, , 
36.96, 0.095313, , 
36.98, 0.095392, , 
36.99, 0.095412, , 
37.01, 0.095297, , 
37.03, 0.095095, , 
37.04, 0.095233, , 
37.06, 0.095388, , 
37.08, 0.095566, , 
37.09, 0.095800, , 
37.11, 0.096157, , 
37.13, 0.096292, , 
37.15, 0.096169, , 
37.16, 0.096141, , 
37.18, 0.096268, , 
37.19, 0.096570, , 
37.21, 0.096863, , 
37.23, 0.096911, , 
37.24, 0.096760, , 
37.26, 0.096700, , 
37.28, 0.096966, , 
37.29, 0.097216, , 
37.31, 0.097287, , 
37.33, 0.097299, , 
37.34, 0.097446, , 
37.36, 0.097553, , 
37.38, 0.097529, , 
37.39, 0.097485, , 
37.41, 0.097557, , 
37.43, 0.097811, , 
37.44, 0.098156, , 
37.46, 0.098274, , 
37.48, 0.098064, , 
37.49, 0.097922, , 
37.51, 0.098132, , 
37.53, 0.098397, , 
37.55, 0.098608, , 
37.56, 0.098611, , 
37.58, 0.098497, , 
37.59, 0.098441, , 
37.61, 0.098667, , 
37.63, 0.098770, , 
37.64, 0.098814, , 
37.66, 0.098980, , 
37.68, 0.099190, , 
37.69, 0.099175, , 
37.71, 0.099020, , 
37.73, 0.099095, , 
37.74, 0.099293, , 
37.76, 0.099575, , 
37.78, 0.099678, , 
37.79, 0.099515, , 
37.81, 0.099416, , 
37.83, 0.099769, , 
37.84, 0.100170, , 
37.86, 0.100285, , 
37.88, 0.100237, , 
37.89, 0.100336, , 
37.91, 0.100491, , 
37.93, 0.100649, , 
37.94, 0.100907, , 
37.96, 0.101014, , 
37.98, 0.101169, , 
37.99, 0.101442, , 
38.01, 0.101617, , 
38.03, 0.101359, , 
38.04, 0.101264, , 
38.06, 0.101561, , 
38.08, 0.102105, , 
38.09, 0.102576, , 
38.11, 0.102858, , 
38.13, 0.102989, , 
38.14, 0.103258, , 
38.16, 0.103754, , 
38.18, 0.104012, , 
38.19, 0.104099, , 
38.21, 0.104329, , 
38.23, 0.104821, , 
38.24, 0.105225, , 
38.26, 0.105356, , 
38.28, 0.105439, , 
38.29, 0.105653, , 
38.31, 0.106121, , 
38.33, 0.106652, , 
38.34, 0.107088, , 
38.36, 0.107287, , 
38.38, 0.107425, , 
38.39, 0.107830, , 
38.41, 0.108310, , 
38.43, 0.108774, , 
38.44, 0.109150, , 
38.46, 0.109646, , 
38.48, 0.110090, , 
38.49, 0.110435, , 
38.51, 0.110911, , 
38.53, 0.111351, , 
38.54, 0.111942, , 
38.56, 0.112524, , 
38.58, 0.112921, , 
38.59, 0.113000, , 
38.61, 0.113127, , 
38.63, 0.113722, , 
38.64, 0.114495, , 
38.66, 0.115149, , 
38.68, 0.115470, , 
38.69, 0.115827, , 
38.71, 0.116224, , 
38.73, 0.116680, , 
38.74, 0.117314, , 
38.76, 0.117782, , 
38.78, 0.118250, , 
38.79, 0.118726, , 
38.81, 0.119142, , 
38.83, 0.119427, , 
38.84, 0.119836, , 
38.86, 0.120514, , 
38.88, 0.121164, , 
38.90, 0.121604, , 
38.91, 0.121925, , 
38.93, 0.122286, , 
38.94, 0.122782, , 
38.96, 0.123448, , 
38.98, 0.123963, , 
38.99, 0.124197, , 
39.01, 0.124435, , 
39.03, 0.124637, , 
39.04, 0.124903, , 
39.06, 0.125196, , 
39.08, 0.125708, , 
39.09, 0.126251, , 
39.11, 0.126826, , 
39.13, 0.127298, , 
39.14, 0.127690, , 
39.16, 0.127944, , 
39.18, 0.128233, , 
39.19, 0.128717, , 
39.21, 0.129018, , 
39.23, 0.128828, , 
39.24, 0.128975, , 
39.26, 0.129510, , 
39.28, 0.130022, , 
39.30, 0.130200, , 
39.31, 0.130386, , 
39.33, 0.130620, , 
39.34, 0.130918, , 
39.36, 0.131219, , 
39.38, 0.131382, , 
39.39, 0.131286, , 
39.41, 0.131033, , 
39.43, 0.130997, , 
39.44, 0.131132, , 
39.46, 0.131278, , 
39.48, 0.131409, , 
39.49, 0.131572, , 
39.51, 0.131588, , 
39.53, 0.131493, , 
39.54, 0.131425, , 
39.56, 0.131469, , 
39.58, 0.131608, , 
39.59, 0.131754, , 
39.61, 0.131746, , 
39.63, 0.131421, , 
39.64, 0.131120, , 
39.66, 0.131179, , 
39.68, 0.131358, , 
39.70, 0.131282, , 
39.71, 0.130969, , 
39.73, 0.130652, , 
39.74, 0.130450, , 
39.76, 0.130450, , 
39.78, 0.130303, , 
39.79, 0.130037, , 
39.81, 0.129669, , 
39.83, 0.129280, , 
39.84, 0.128959, , 
39.86, 0.128578, , 
39.88, 0.128475, , 
39.89, 0.128408, , 
39.91, 0.128309, , 
39.93, 0.128150, , 
39.94, 0.127730, , 
39.96, 0.127282, , 
39.98, 0.126973, , 
39.99, 0.126830, , 
40.01, 0.126326, , 
40.03, 0.125628, , 
40.04, 0.125196, , 
40.06, 0.125172, , 
40.08, 0.125117, , 
40.09, 0.124724, , 
40.11, 0.124403, , 
40.13, 0.124142, , 
40.14, 0.123939, , 
40.16, 0.123646, , 
40.18, 0.123146, , 
40.19, 0.122611, , 
40.21, 0.122147, , 
40.23, 0.121929, , 
40.24, 0.121632, , 
40.26, 0.121132, , 
40.28, 0.120712, , 
40.29, 0.120462, , 
40.31, 0.120141, , 
40.33, 0.119574, , 
40.34, 0.119261, , 
40.36, 0.119031, , 
40.38, 0.118908, , 
40.39, 0.118698, , 
40.41, 0.118281, , 
40.43, 0.117738, , 
40.44, 0.117195, , 
40.46, 0.116989, , 
40.48, 0.116818, , 
40.49, 0.116390, , 
40.51, 0.115990, , 
40.53, 0.115633, , 
40.54, 0.115113, , 
40.56, 0.114558, , 
40.58, 0.114126, , 
40.59, 0.113900, , 
40.61, 0.113868, , 
40.63, 0.113809, , 
40.64, 0.113528, , 
40.66, 0.112857, , 
40.68, 0.112346, , 
40.69, 0.112195, , 
40.71, 0.112064, , 
40.73, 0.111720, , 
40.74, 0.111343, , 
40.76, 0.110919, , 
40.78, 0.110693, , 
40.79, 0.110704, , 
40.81, 0.110490, , 
40.83, 0.110185, , 
40.84, 0.109967, , 
40.86, 0.109935, , 
40.88, 0.109793, , 
40.89, 0.109388, , 
40.91, 0.109253, , 
40.93, 0.109178, , 
40.94, 0.109134, , 
40.96, 0.109019, , 
40.98, 0.108627, , 
40.99, 0.108286, , 
41.01, 0.108052, , 
41.03, 0.107905, , 
41.04, 0.107699, , 
41.06, 0.107386, , 
41.08, 0.107362, , 
41.09, 0.107564, , 
41.11, 0.107544, , 
41.13, 0.107235, , 
41.14, 0.107021, , 
41.16, 0.106886, , 
41.18, 0.106862, , 
41.19, 0.106744, , 
41.21, 0.106490, , 
41.23, 0.106161, , 
41.24, 0.105859, , 
41.26, 0.105879, , 
41.28, 0.105851, , 
41.29, 0.105661, , 
41.31, 0.105439, , 
41.33, 0.105312, , 
41.34, 0.105122, , 
41.36, 0.104729, , 
41.38, 0.104329, , 
41.39, 0.104170, , 
41.41, 0.104170, , 
41.43, 0.104198, , 
41.45, 0.103996, , 
41.46, 0.103663, , 
41.48, 0.103310, , 
41.49, 0.103314, , 
41.51, 0.103354, , 
41.53, 0.103143, , 
41.54, 0.102898, , 
41.56, 0.102739, , 
41.58, 0.102497, , 
41.59, 0.102208, , 
41.61, 0.101974, , 
41.63, 0.101851, , 
41.64, 0.101875, , 
41.66, 0.101871, , 
41.68, 0.101649, , 
41.69, 0.100717, , 
41.71, 0.099860, , 
41.73, 0.099864, , 
41.74, 0.100162, , 
41.76, 0.100352, , 
41.78, 0.100308, , 
41.79, 0.100126, , 
41.81, 0.100063, , 
41.83, 0.100150, , 
41.85, 0.100023, , 
41.86, 0.099853, , 
41.88, 0.099741, , 
41.89, 0.099682, , 
41.91, 0.099515, , 
41.93, 0.099095, , 
41.94, 0.098909, , 
41.96, 0.098857, , 
41.98, 0.098786, , 
41.99, 0.098608, , 
42.01, 0.098207, , 
42.03, 0.097632, , 
42.04, 0.097363, , 
42.06, 0.097509, , 
42.08, 0.097589, , 
42.09, 0.097414, , 
42.11, 0.097327, , 
42.13, 0.097335, , 
42.14, 0.097208, , 
42.16, 0.096915, , 
42.18, 0.096681, , 
42.19, 0.096546, , 
42.21, 0.096419, , 
42.23, 0.096185, , 
42.24, 0.095935, , 
42.26, 0.095689, , 
42.28, 0.095527, , 
42.29, 0.095606, , 
42.31, 0.095451, , 
42.33, 0.095146, , 
42.34, 0.095083, , 
42.36, 0.095261, , 
42.38, 0.095257, , 
42.39, 0.094920, , 
42.41, 0.094567, , 
42.43, 0.094401, , 
42.44, 0.094559, , 
42.46, 0.094805, , 
42.48, 0.094710, , 
42.49, 0.094353, , 
42.51, 0.094091, , 
42.53, 0.094262, , 
42.54, 0.094472, , 
42.56, 0.094365, , 
42.58, 0.094119, , 
42.59, 0.093988, , 
42.61, 0.093897, , 
42.63, 0.093774, , 
42.64, 0.093754, , 
42.66, 0.093798, , 
42.68, 0.093933, , 
42.69, 0.094036, , 
42.71, 0.093973, , 
42.73, 0.093671, , 
42.74, 0.093283, , 
42.76, 0.092894, , 
42.78, 0.092252, , 
42.79, 0.091613, , 
42.81, 0.091054, , 
42.83, 0.090547, , 
42.84, 0.090396, , 
42.86, 0.090555, , 
42.88, 0.090682, , 
42.89, 0.091138, , 
42.91, 0.091812, , 
42.93, 0.092391, , 
42.94, 0.092644, , 
42.96, 0.092597, , 
42.98, 0.092632, , 
42.99, 0.092728, , 
43.01, 0.092807, , 
43.03, 0.092593, , 
43.04, 0.092375, , 
43.06, 0.092224, , 
43.08, 0.092327, , 
43.09, 0.092609, , 
43.11, 0.092712, , 
43.13, 0.092700, , 
43.14, 0.092747, , 
43.16, 0.092938, , 
43.18, 0.092954, , 
43.19, 0.092692, , 
43.21, 0.092589, , 
43.23, 0.092648, , 
43.24, 0.092874, , 
43.26, 0.093061, , 
43.28, 0.092981, , 
43.29, 0.092759, , 
43.31, 0.092581, , 
43.33, 0.092712, , 
43.34, 0.092854, , 
43.36, 0.092866, , 
43.38, 0.092823, , 
43.39, 0.092866, , 
43.41, 0.092708, , 
43.43, 0.092216, , 
43.44, 0.092089, , 
43.46, 0.092307, , 
43.48, 0.092696, , 
43.49, 0.092946, , 
43.51, 0.092934, , 
43.53, 0.092648, , 
43.54, 0.092533, , 
43.56, 0.092783, , 
43.58, 0.092965, , 
43.60, 0.092898, , 
43.61, 0.092652, , 
43.63, 0.092462, , 
43.64, 0.092402, , 
43.66, 0.092739, , 
43.68, 0.093049, , 
43.69, 0.093180, , 
43.71, 0.093334, , 
43.73, 0.093473, , 
43.74, 0.093326, , 
43.76, 0.093076, , 
43.78, 0.093132, , 
43.79, 0.093310, , 
43.81, 0.093469, , 
43.83, 0.093473, , 
43.84, 0.093521, , 
43.86, 0.093572, , 
43.88, 0.093643, , 
43.89, 0.093834, , 
43.91, 0.093838, , 
43.93, 0.093723, , 
43.94, 0.093770, , 
43.96, 0.093953, , 
43.98, 0.093913, , 
44.00, 0.093643, , 
44.01, 0.093532, , 
44.03, 0.093410, , 
44.04, 0.093469, , 
44.06, 0.093548, , 
44.08, 0.093643, , 
44.09, 0.093647, , 
44.11, 0.093711, , 
44.13, 0.094012, , 
44.14, 0.094131, , 
44.16, 0.094171, , 
44.18, 0.094349, , 
44.19, 0.094674, , 
44.21, 0.094773, , 
44.23, 0.094571, , 
44.24, 0.094528, , 
44.26, 0.094702, , 
44.28, 0.095035, , 
44.29, 0.095245, , 
44.31, 0.095269, , 
44.33, 0.095122, , 
44.34, 0.095206, , 
44.36, 0.095531, , 
44.38, 0.095697, , 
44.40, 0.095761, , 
44.41, 0.095951, , 
44.43, 0.096086, , 
44.44, 0.096114, , 
44.46, 0.096213, , 
44.48, 0.096399, , 
44.49, 0.096613, , 
44.51, 0.096879, , 
44.53, 0.097073, , 
44.54, 0.096974, , 
44.56, 0.096792, , 
44.58, 0.097117, , 
44.59, 0.097517, , 
44.61, 0.097795, , 
44.63, 0.097965, , 
44.64, 0.097914, , 
44.66, 0.097993, , 
44.68, 0.098374, , 
44.69, 0.098619, , 
44.71, 0.098707, , 
44.73, 0.098818, , 
44.74, 0.099052, , 
44.76, 0.099163, , 
44.78, 0.099135, , 
44.79, 0.099286, , 
44.81, 0.099603, , 
44.83, 0.100007, , 
44.84, 0.100261, , 
44.86, 0.100364, , 
44.88, 0.100412, , 
44.89, 0.100590, , 
44.91, 0.101014, , 
44.93, 0.101371, , 
44.94, 0.101498, , 
44.96, 0.101577, , 
44.98, 0.101760, , 
44.99, 0.102029, , 
45.01, 0.102394, , 
45.03, 0.102446, , 
45.04, 0.102517, , 
45.06, 0.102878, , 
45.08, 0.103433, , 
45.09, 0.103742, , 
45.11, 0.104000, , 
45.13, 0.104468, , 
45.14, 0.105023, , 
45.16, 0.105534, , 
45.18, 0.105816, , 
45.19, 0.106149, , 
45.21, 0.106478, , 
45.23, 0.106843, , 
45.24, 0.107311, , 
45.26, 0.107648, , 
45.28, 0.108008, , 
45.29, 0.108476, , 
45.31, 0.109075, , 
45.33, 0.109527, , 
45.34, 0.109729, , 
45.36, 0.110145, , 
45.38, 0.110657, , 
45.39, 0.111216, , 
45.41, 0.111779, , 
45.43, 0.112354, , 
45.44, 0.112663, , 
45.46, 0.112976, , 
45.48, 0.113520, , 
45.49, 0.114051, , 
45.51, 0.114654, , 
45.53, 0.115185, , 
45.54, 0.115760, , 
45.56, 0.116208, , 
45.58, 0.116410, , 
45.59, 0.116826, , 
45.61, 0.117445, , 
45.63, 0.118234, , 
45.64, 0.118868, , 
45.66, 0.119269, , 
45.68, 0.119689, , 
45.69, 0.120145, , 
45.71, 0.120815, , 
45.73, 0.121342, , 
45.75, 0.121830, , 
45.76, 0.122338, , 
45.78, 0.122560, , 
45.79, 0.123099, , 
45.81, 0.123440, , 
45.83, 0.123499, , 
45.84, 0.123880, , 
45.86, 0.124439, , 
45.88, 0.125010, , 
45.89, 0.125323, , 
45.91, 0.125621, , 
45.93, 0.126211, , 
45.94, 0.126862, , 
45.96, 0.127294, , 
45.98, 0.127536, , 
45.99, 0.127706, , 
46.01, 0.127841, , 
46.03, 0.127877, , 
46.04, 0.128118, , 
46.06, 0.128364, , 
46.08, 0.128721, , 
46.09, 0.129197, , 
46.11, 0.129677, , 
46.13, 0.129823, , 
46.15, 0.129760, , 
46.16, 0.129934, , 
46.18, 0.130224, , 
46.19, 0.130450, , 
46.21, 0.130374, , 
46.23, 0.130133, , 
46.24, 0.130117, , 
46.26, 0.130299, , 
46.28, 0.130604, , 
46.29, 0.130704, , 
46.31, 0.130803, , 
46.33, 0.131009, , 
46.34, 0.131235, , 
46.36, 0.131128, , 
46.38, 0.130636, , 
46.39, 0.130343, , 
46.41, 0.130442, , 
46.43, 0.130656, , 
46.44, 0.130696, , 
46.46, 0.130541, , 
46.48, 0.130117, , 
46.49, 0.129871, , 
46.51, 0.129847, , 
46.53, 0.129768, , 
46.55, 0.129562, , 
46.56, 0.129451, , 
46.58, 0.129304, , 
46.59, 0.128864, , 
46.61, 0.128491, , 
46.63, 0.128158, , 
46.64, 0.128071, , 
46.66, 0.128079, , 
46.68, 0.127888, , 
46.69, 0.127329, , 
46.71, 0.126616, , 
46.73, 0.126453, , 
46.74, 0.126366, , 
46.76, 0.126084, , 
46.78, 0.125537, , 
46.79, 0.124970, , 
46.81, 0.124526, , 
46.83, 0.124316, , 
46.84, 0.124015, , 
46.86, 0.123567, , 
46.88, 0.123281, , 
46.89, 0.123027, , 
46.91, 0.122560, , 
46.93, 0.121901, , 
46.94, 0.121473, , 
46.96, 0.121315, , 
46.98, 0.121140, , 
46.99, 0.120748, , 
47.01, 0.120232, , 
47.03, 0.119550, , 
47.04, 0.119170, , 
47.06, 0.118999, , 
47.08, 0.118555, , 
47.09, 0.117952, , 
47.11, 0.117362, , 
47.13, 0.116961, , 
47.14, 0.116565, , 
47.16, 0.116255, , 
47.18, 0.115784, , 
47.19, 0.115431, , 
47.21, 0.115042, , 
47.23, 0.114483, , 
47.24, 0.113880, , 
47.26, 0.113325, , 
47.28, 0.113254, , 
47.29, 0.113187, , 
47.31, 0.112929, , 
47.33, 0.112489, , 
47.34, 0.111981, , 
47.36, 0.111608, , 
47.38, 0.111208, , 
47.39, 0.110843, , 
47.41, 0.110431, , 
47.43, 0.109971, , 
47.44, 0.109785, , 
47.46, 0.109618, , 
47.48, 0.109218, , 
47.49, 0.108710, , 
47.51, 0.108373, , 
47.53, 0.108250, , 
47.54, 0.108068, , 
47.56, 0.107735, , 
47.58, 0.107267, , 
47.59, 0.106890, , 
47.61, 0.106577, , 
47.63, 0.106383, , 
47.64, 0.106077, , 
47.66, 0.105689, , 
47.68, 0.105463, , 
47.69, 0.105328, , 
47.71, 0.104987, , 
47.73, 0.104428, , 
47.74, 0.104043, , 
47.76, 0.104012, , 
47.78, 0.104012, , 
47.79, 0.103762, , 
47.81, 0.103461, , 
47.83, 0.103001, , 
47.84, 0.102715, , 
47.86, 0.102664, , 
47.88, 0.102537, , 
47.89, 0.102331, , 
47.91, 0.102097, , 
47.93, 0.101867, , 
47.94, 0.101522, , 
47.96, 0.101335, , 
47.98, 0.101201, , 
47.99, 0.101157, , 
48.01, 0.101153, , 
48.03, 0.100832, , 
48.04, 0.100090, , 
48.06, 0.099555, , 
48.08, 0.099690, , 
48.09, 0.099781, , 
48.11, 0.099654, , 
48.13, 0.099404, , 
48.14, 0.099222, , 
48.16, 0.099099, , 
48.18, 0.098897, , 
48.19, 0.098802, , 
48.21, 0.098608, , 
48.23, 0.098179, , 
48.24, 0.098116, , 
48.26, 0.098128, , 
48.28, 0.097890, , 
48.30, 0.097529, , 
48.31, 0.097648, , 
48.33, 0.097799, , 
48.34, 0.097811, , 
48.36, 0.097636, , 
48.38, 0.097394, , 
48.39, 0.097271, , 
48.41, 0.097212, , 
48.43, 0.097244, , 
48.44, 0.097168, , 
48.46, 0.096776, , 
48.48, 0.096661, , 
48.49, 0.096748, , 
48.51, 0.096716, , 
48.53, 0.096494, , 
48.54, 0.096478, , 
48.56, 0.096562, , 
48.58, 0.096617, , 
48.59, 0.096510, , 
48.61, 0.096411, , 
48.63, 0.096248, , 
48.64, 0.096177, , 
48.66, 0.096284, , 
48.68, 0.096244, , 
48.70, 0.096094, , 
48.71, 0.096102, , 
48.73, 0.096007, , 
48.74, 0.095761, , 
48.76, 0.095646, , 
48.78, 0.095519, , 
48.79, 0.095225, , 
48.81, 0.094702, , 
48.83, 0.094274, , 
48.84, 0.093957, , 
48.86, 0.093497, , 
48.88, 0.093548, , 
48.89, 0.093671, , 
48.91, 0.093723, , 
48.93, 0.094080, , 
48.94, 0.094821, , 
48.96, 0.095229, , 
48.98, 0.095380, , 
48.99, 0.095515, , 
49.01, 0.095630, , 
49.03, 0.095820, , 
49.04, 0.095995, , 
49.06, 0.095999, , 
49.08, 0.095749, , 
49.09, 0.095511, , 
49.11, 0.095800, , 
49.13, 0.096161, , 
49.14, 0.096264, , 
49.16, 0.096225, , 
49.18, 0.096217, , 
49.19, 0.096248, , 
49.21, 0.096129, , 
49.23, 0.095892, , 
49.24, 0.095713, , 
49.26, 0.095788, , 
49.28, 0.096229, , 
49.29, 0.096601, , 
49.31, 0.096621, , 
49.33, 0.096506, , 
49.34, 0.096689, , 
49.36, 0.096994, , 
49.38, 0.097164, , 
49.39, 0.097160, , 
49.41, 0.097053, , 
49.43, 0.096716, , 
49.44, 0.096546, , 
49.46, 0.096609, , 
49.48, 0.096732, , 
49.49, 0.097137, , 
49.51, 0.097553, , 
49.53, 0.097858, , 
49.54, 0.097779, , 
49.56, 0.097474, , 
49.58, 0.097489, , 
49.59, 0.097759, , 
49.61, 0.097985, , 
49.63, 0.097878, , 
49.64, 0.097795, , 
49.66, 0.097779, , 
49.68, 0.097930, , 
49.69, 0.098274, , 
49.71, 0.098500, , 
49.73, 0.098726, , 
49.74, 0.099048, , 
49.76, 0.099190, , 
49.78, 0.099163, , 
49.79, 0.099218, , 
49.81, 0.099278, , 
49.83, 0.099365, , 
49.84, 0.099666, , 
49.86, 0.099952, , 
49.88, 0.100079, , 
49.89, 0.100130, , 
49.91, 0.100598, , 
49.93, 0.101074, , 
49.94, 0.101320, , 
49.96, 0.101470, , 
49.98, 0.101728, , 
49.99, 0.101867, , 
50.01, 0.101998, , 
50.03, 0.102263, , 
50.04, 0.102485, , 
50.06, 0.102854, , 
50.08, 0.103243, , 
50.09, 0.103520, , 
50.11, 0.103500, , 
50.13, 0.103552, , 
50.14, 0.104039, , 
50.16, 0.104519, , 
50.18, 0.104690, , 
50.19, 0.104773, , 
50.21, 0.104971, , 
50.23, 0.105086, , 
50.24, 0.105296, , 
50.26, 0.105697, , 
50.28, 0.106133, , 
50.29, 0.106728, , 
50.31, 0.107366, , 
50.33, 0.107889, , 
50.34, 0.108123, , 
50.36, 0.108222, , 
50.38, 0.108698, , 
50.39, 0.109194, , 
50.41, 0.109602, , 
50.43, 0.109943, , 
50.45, 0.110419, , 
50.46, 0.110808, , 
50.48, 0.111061, , 
50.49, 0.111375, , 
50.51, 0.111708, , 
50.53, 0.112279, , 
50.54, 0.112984, , 
50.56, 0.113646, , 
50.58, 0.113876, , 
50.59, 0.113888, , 
50.61, 0.114372, , 
50.63, 0.115022, , 
50.64, 0.115609, , 
50.66, 0.115970, , 
50.68, 0.116196, , 
50.69, 0.116434, , 
50.71, 0.116735, , 
50.73, 0.117255, , 
50.74, 0.117695, , 
50.76, 0.118079, , 
50.78, 0.118591, , 
50.79, 0.118880, , 
50.81, 0.119031, , 
50.83, 0.119376, , 
50.85, 0.119927, , 
50.86, 0.120514, , 
50.88, 0.121037, , 
50.89, 0.121323, , 
50.91, 0.121323, , 
50.93, 0.121323, , 
50.94, 0.121838, , 
50.96, 0.122401, , 
50.98, 0.122718, , 
50.99, 0.122865, , 
51.01, 0.123083, , 
51.03, 0.123317, , 
51.04, 0.123444, , 
51.06, 0.123622, , 
51.08, 0.123852, , 
51.09, 0.124134, , 
51.11, 0.124439, , 
51.13, 0.124637, , 
51.14, 0.124649, , 
51.16, 0.124629, , 
51.18, 0.124966, , 
51.19, 0.125200, , 
51.21, 0.125172, , 
51.23, 0.124859, , 
51.25, 0.124903, , 
51.26, 0.125141, , 
51.28, 0.125327, , 
51.29, 0.125482, , 
51.31, 0.125506, , 
51.33, 0.125597, , 
51.34, 0.125819, , 
51.36, 0.125989, , 
51.38, 0.125787, , 
51.39, 0.125303, , 
51.41, 0.125165, , 
51.43, 0.125287, , 
51.44, 0.125359, , 
51.46, 0.125335, , 
51.48, 0.125200, , 
51.49, 0.125030, , 
51.51, 0.124764, , 
51.53, 0.124550, , 
51.54, 0.124387, , 
51.56, 0.124261, , 
51.58, 0.124225, , 
51.59, 0.124157, , 
51.61, 0.123904, , 
51.63, 0.123194, , 
51.64, 0.122833, , 
51.66, 0.122790, , 
51.68, 0.122734, , 
51.69, 0.122468, , 
51.71, 0.122068, , 
51.73, 0.121493, , 
51.74, 0.121108, , 
51.76, 0.120926, , 
51.78, 0.120597, , 
51.79, 0.120200, , 
51.81, 0.119871, , 
51.83, 0.119594, , 
51.84, 0.119197, , 
51.86, 0.118920, , 
51.88, 0.118642, , 
51.89, 0.118484, , 
51.91, 0.118246, , 
51.93, 0.117814, , 
51.94, 0.117191, , 
51.96, 0.116537, , 
51.98, 0.116422, , 
51.99, 0.116275, , 
52.01, 0.115918, , 
52.03, 0.115554, , 
52.04, 0.115276, , 
52.06, 0.115018, , 
52.08, 0.114693, , 
52.09, 0.114614, , 
52.11, 0.114606, , 
52.13, 0.114705, , 
52.14, 0.114840, , 
52.16, 0.114776, , 
52.18, 0.114455, , 
52.19, 0.113999, , 
52.21, 0.113738, , 
52.23, 0.113468, , 
52.24, 0.113214, , 
52.26, 0.112917, , 
52.28, 0.112711, , 
52.29, 0.112540, , 
52.31, 0.112362, , 
52.33, 0.112168, , 
52.34, 0.111862, , 
52.36, 0.111557, , 
52.38, 0.111367, , 
52.39, 0.111129, , 
52.41, 0.110486, , 
52.43, 0.109543, , 
52.44, 0.108920, , 
52.46, 0.108651, , 
52.48, 0.108310, , 
52.49, 0.107866, , 
52.51, 0.107441, , 
52.53, 0.106898, , 
52.54, 0.106450, , 
52.56, 0.106173, , 
52.58, 0.105943, , 
52.60, 0.105721, , 
52.61, 0.105538, , 
52.63, 0.105106, , 
52.64, 0.104543, , 
52.66, 0.104361, , 
52.68, 0.104456, , 
52.69, 0.104606, , 
52.71, 0.104662, , 
52.73, 0.104495, , 
52.74, 0.104107, , 
52.76, 0.103710, , 
52.78, 0.103809, , 
52.79, 0.103901, , 
52.81, 0.103635, , 
52.83, 0.103088, , 
52.84, 0.102917, , 
52.86, 0.102925, , 
52.88, 0.102874, , 
52.89, 0.102894, , 
52.91, 0.102882, , 
52.93, 0.102969, , 
52.94, 0.103052, , 
52.96, 0.102957, , 
52.98, 0.102668, , 
53.00, 0.102366, , 
53.01, 0.102323, , 
53.03, 0.102113, , 
53.04, 0.101902, , 
53.06, 0.101815, , 
53.08, 0.102001, , 
53.09, 0.102144, , 
53.11, 0.102140, , 
53.13, 0.102156, , 
53.14, 0.102073, , 
53.16, 0.101994, , 
53.18, 0.102140, , 
53.19, 0.102267, , 
53.21, 0.102085, , 
53.23, 0.101589, , 
53.24, 0.101522, , 
53.26, 0.101649, , 
53.28, 0.101716, , 
53.29, 0.101724, , 
53.31, 0.101744, , 
53.33, 0.101803, , 
53.34, 0.101887, , 
53.36, 0.102013, , 
53.38, 0.102021, , 
53.40, 0.102085, , 
53.41, 0.102148, , 
53.43, 0.101898, , 
53.44, 0.101542, , 
53.46, 0.101450, , 
53.48, 0.101732, , 
53.49, 0.102085, , 
53.51, 0.102335, , 
53.53, 0.102442, , 
53.54, 0.102390, , 
53.56, 0.102299, , 
53.58, 0.102521, , 
53.59, 0.102727, , 
53.61, 0.102902, , 
53.63, 0.103120, , 
53.64, 0.103203, , 
53.66, 0.103211, , 
53.68, 0.103322, , 
53.69, 0.103453, , 
53.71, 0.103825, , 
53.73, 0.104202, , 
53.74, 0.104484, , 
53.76, 0.104460, , 
53.78, 0.104250, , 
53.79, 0.104519, , 
53.81, 0.104999, , 
53.83, 0.105332, , 
53.84, 0.105506, , 
53.86, 0.105578, , 
53.88, 0.105637, , 
53.89, 0.105768, , 
53.91, 0.106046, , 
53.93, 0.106280, , 
53.94, 0.106553, , 
53.96, 0.106970, , 
53.98, 0.107065, , 
53.99, 0.107001, , 
54.01, 0.107132, , 
54.03, 0.107299, , 
54.04, 0.107648, , 
54.06, 0.108111, , 
54.08, 0.108480, , 
54.09, 0.108603, , 
54.11, 0.108710, , 
54.13, 0.109230, , 
54.14, 0.109757, , 
54.16, 0.110070, , 
54.18, 0.110268, , 
54.19, 0.110681, , 
54.21, 0.110962, , 
54.23, 0.110958, , 
54.24, 0.111172, , 
54.26, 0.111450, , 
54.28, 0.111969, , 
54.29, 0.112449, , 
54.31, 0.112881, , 
54.33, 0.113091, , 
54.34, 0.113222, , 
54.36, 0.113841, , 
54.38, 0.114340, , 
54.39, 0.114610, , 
54.41, 0.114891, , 
54.43, 0.115411, , 
54.44, 0.115633, , 
54.46, 0.116144, , 
54.48, 0.116466, , 
54.49, 0.116739, , 
54.51, 0.117239, , 
54.53, 0.117829, , 
54.54, 0.118329, , 
54.56, 0.118416, , 
54.58, 0.118293, , 
54.59, 0.118618, , 
54.61, 0.119162, , 
54.63, 0.119669, , 
54.64, 0.120022, , 
54.66, 0.120343, , 
54.68, 0.120625, , 
54.69, 0.120779, , 
54.71, 0.121041, , 
54.73, 0.121315, , 
54.75, 0.121743, , 
54.76, 0.122143, , 
54.78, 0.122207, , 
54.79, 0.122238, , 
54.81, 0.122397, , 
54.83, 0.122457, , 
54.84, 0.122345, , 
54.86, 0.122322, , 
54.88, 0.122476, , 
54.89, 0.122135, , 
54.91, 0.121878, , 
54.93, 0.122167, , 
54.94, 0.122453, , 
54.96, 0.122980, , 
54.98, 0.123721, , 
54.99, 0.124483, , 
55.01, 0.124820, , 
55.03, 0.124946, , 
55.04, 0.125180, , 
55.06, 0.125430, , 
55.08, 0.125720, , 
55.09, 0.125874, , 
55.11, 0.125958, , 
55.13, 0.125894, , 
55.15, 0.125755, , 
55.16, 0.126005, , 
55.18, 0.126076, , 
55.19, 0.125926, , 
55.21, 0.125668, , 
55.23, 0.125287, , 
55.24, 0.125192, , 
55.26, 0.125069, , 
55.28, 0.125157, , 
55.29, 0.125236, , 
55.31, 0.125268, , 
55.33, 0.125371, , 
55.34, 0.125339, , 
55.36, 0.125010, , 
55.38, 0.124605, , 
55.39, 0.124566, , 
55.41, 0.124594, , 
55.43, 0.124514, , 
55.44, 0.124360, , 
55.46, 0.124165, , 
55.48, 0.123987, , 
55.49, 0.123670, , 
55.51, 0.123464, , 
55.53, 0.123214, , 
55.55, 0.123031, , 
55.56, 0.122992, , 
55.58, 0.122738, , 
55.59, 0.122242, , 
55.61, 0.121901, , 
55.63, 0.121628, , 
55.64, 0.121596, , 
55.66, 0.121580, , 
55.68, 0.121342, , 
55.69, 0.120823, , 
55.71, 0.120264, , 
55.73, 0.120224, , 
55.74, 0.120121, , 
55.76, 0.119856, , 
55.78, 0.119491, , 
55.79, 0.119181, , 
55.81, 0.118916, , 
55.83, 0.118460, , 
55.84, 0.118119, , 
55.86, 0.117933, , 
55.88, 0.117956, , 
55.89, 0.117893, , 
55.91, 0.117528, , 
55.93, 0.116993, , 
55.94, 0.116509, , 
55.96, 0.116557, , 
55.98, 0.116561, , 
55.99, 0.116370, , 
56.01, 0.115930, , 
56.03, 0.115320, , 
56.04, 0.114987, , 
56.06, 0.114713, , 
56.08, 0.114654, , 
56.09, 0.114654, , 
56.11, 0.114646, , 
56.13, 0.114614, , 
56.14, 0.114495, , 
56.16, 0.114221, , 
56.18, 0.113789, , 
56.19, 0.113801, , 
56.21, 0.113825, , 
56.23, 0.113448, , 
56.24, 0.113052, , 
56.26, 0.112953, , 
56.28, 0.112949, , 
56.29, 0.112961, , 
56.31, 0.112988, , 
56.33, 0.112893, , 
56.34, 0.112806, , 
56.36, 0.112794, , 
56.38, 0.112639, , 
56.39, 0.112405, , 
56.41, 0.112057, , 
56.43, 0.111969, , 
56.44, 0.112116, , 
56.46, 0.112283, , 
56.48, 0.112433, , 
56.49, 0.112524, , 
56.51, 0.112548, , 
56.53, 0.112501, , 
56.54, 0.112548, , 
56.56, 0.112493, , 
56.58, 0.112017, , 
56.59, 0.111890, , 
56.61, 0.112124, , 
56.63, 0.112219, , 
56.64, 0.112449, , 
56.66, 0.112790, , 
56.68, 0.113210, , 
56.69, 0.113603, , 
56.71, 0.113734, , 
56.73, 0.113579, , 
56.74, 0.113468, , 
56.76, 0.113785, , 
56.78, 0.114087, , 
56.79, 0.114317, , 
56.81, 0.114455, , 
56.83, 0.114749, , 
56.84, 0.114903, , 
56.86, 0.114887, , 
56.88, 0.115050, , 
56.89, 0.115387, , 
56.91, 0.115926, , 
56.93, 0.116279, , 
56.94, 0.116462, , 
56.96, 0.116481, , 
56.98, 0.116466, , 
56.99, 0.116858, , 
57.01, 0.117346, , 
57.03, 0.117647, , 
57.04, 0.117845, , 
57.06, 0.118222, , 
57.08, 0.118571, , 
57.09, 0.118729, , 
57.11, 0.118959, , 
57.13, 0.119257, , 
57.14, 0.119733, , 
57.16, 0.120224, , 
57.18, 0.120581, , 
57.19, 0.120752, , 
57.21, 0.120859, , 
57.23, 0.121485, , 
57.24, 0.122024, , 
57.26, 0.122322, , 
57.28, 0.122488, , 
57.30, 0.122797, , 
57.31, 0.123107, , 
57.33, 0.123285, , 
57.34, 0.123583, , 
57.36, 0.123916, , 
57.38, 0.124387, , 
57.39, 0.124847, , 
57.41, 0.125081, , 
57.43, 0.124919, , 
57.44, 0.124800, , 
57.46, 0.125331, , 
57.48, 0.126041, , 
57.49, 0.126639, , 
57.51, 0.126973, , 
57.53, 0.127159, , 
57.54, 0.127361, , 
57.56, 0.127543, , 
57.58, 0.127781, , 
57.59, 0.127992, , 
57.61, 0.128301, , 
57.63, 0.128848, , 
57.64, 0.129046, , 
57.66, 0.129014, , 
57.68, 0.129177, , 
57.70, 0.129562, , 
57.71, 0.129962, , 
57.73, 0.130363, , 
57.74, 0.130557, , 
57.76, 0.130474, , 
57.78, 0.130172, , 
57.79, 0.130485, , 
57.81, 0.130906, , 
57.83, 0.131116, , 
57.84, 0.131259, , 
57.86, 0.131453, , 
57.88, 0.131429, , 
57.89, 0.131366, , 
57.91, 0.131429, , 
57.93, 0.131615, , 
57.94, 0.131952, , 
57.96, 0.132186, , 
57.98, 0.132210, , 
57.99, 0.132083, , 
58.01, 0.131770, , 
58.03, 0.131949, , 
58.04, 0.132214, , 
58.06, 0.132246, , 
58.08, 0.132123, , 
58.10, 0.131941, , 
58.11, 0.131818, , 
58.13, 0.131635, , 
58.14, 0.131631, , 
58.16, 0.131556, , 
58.18, 0.131481, , 
58.19, 0.131433, , 
58.21, 0.131413, , 
58.23, 0.131298, , 
58.24, 0.130882, , 
58.26, 0.130743, , 
58.28, 0.130743, , 
58.29, 0.130585, , 
58.31, 0.130339, , 
58.33, 0.130148, , 
58.34, 0.130029, , 
58.36, 0.129756, , 
58.38, 0.129538, , 
58.39, 0.129225, , 
58.41, 0.128939, , 
58.43, 0.128836, , 
58.44, 0.128856, , 
58.46, 0.128709, , 
58.48, 0.128285, , 
58.49, 0.128122, , 
58.51, 0.128237, , 
58.53, 0.128313, , 
58.54, 0.128154, , 
58.56, 0.127948, , 
58.58, 0.127702, , 
58.59, 0.127345, , 
58.61, 0.127310, , 
58.63, 0.127238, , 
58.64, 0.127183, , 
58.66, 0.127294, , 
58.68, 0.127218, , 
58.69, 0.126865, , 
58.71, 0.126616, , 
58.73, 0.126580, , 
58.74, 0.126743, , 
58.76, 0.126937, , 
58.78, 0.126873, , 
58.79, 0.126699, , 
58.81, 0.126207, , 
58.83, 0.126421, , 
58.84, 0.126707, , 
58.86, 0.126794, , 
58.88, 0.126766, , 
58.89, 0.126885, , 
58.91, 0.126877, , 
58.93, 0.126901, , 
58.94, 0.127000, , 
58.96, 0.127091, , 
58.98, 0.127317, , 
58.99, 0.127540, , 
59.01, 0.127754, , 
59.03, 0.127793, , 
59.04, 0.127873, , 
59.06, 0.128265, , 
59.08, 0.128685, , 
59.09, 0.128983, , 
59.11, 0.129169, , 
59.13, 0.129514, , 
59.14, 0.129677, , 
59.16, 0.130057, , 
59.18, 0.130343, , 
59.19, 0.130537, , 
59.21, 0.130969, , 
59.23, 0.131596, , 
59.24, 0.132250, , 
59.26, 0.132408, , 
59.28, 0.132646, , 
59.29, 0.133071, , 
59.31, 0.133630, , 
59.33, 0.134109, , 
59.34, 0.134454, , 
59.36, 0.134791, , 
59.38, 0.135005, , 
59.39, 0.135354, , 
59.41, 0.135656, , 
59.43, 0.135723, , 
59.45, 0.136108, , 
59.46, 0.136750, , 
59.48, 0.137020, , 
59.49, 0.137531, , 
59.51, 0.137880, , 
59.53, 0.138403, , 
59.54, 0.139010, , 
59.56, 0.139601, , 
59.58, 0.139962, , 
59.59, 0.139993, , 
59.61, 0.139807, , 
59.63, 0.139950, , 
59.64, 0.140394, , 
59.66, 0.140854, , 
59.68, 0.141294, , 
59.69, 0.141754, , 
59.71, 0.141829, , 
59.73, 0.142075, , 
59.74, 0.142360, , 
59.76, 0.142630, , 
59.78, 0.143062, , 
59.79, 0.143419, , 
59.81, 0.143455, , 
59.83, 0.143332, , 
59.85, 0.143102, , 
59.86, 0.143566, , 
59.88, 0.144188, , 
59.89, 0.144585, , 
59.91, 0.144743, , 
59.93, 0.144838, , 
59.94, 0.144850, , 
59.96, 0.145013, , 
59.98, 0.145235, , 
59.99, 0.145322, , 
60.01, 0.145394, , 
60.03, 0.145576, , 
60.04, 0.145675, , 
60.06, 0.145437, , 
60.08, 0.145310, , 
60.09, 0.145631, , 
60.11, 0.145949, , 
60.13, 0.146095, , 
60.14, 0.146076, , 
60.16, 0.146040, , 
60.18, 0.145984, , 
60.19, 0.145933, , 
60.21, 0.146012, , 
60.23, 0.145984, , 
60.25, 0.145945, , 
60.26, 0.146107, , 
60.28, 0.146127, , 
60.29, 0.145905, , 
60.31, 0.145842, , 
60.33, 0.145865, , 
60.34, 0.146032, , 
60.36, 0.146238, , 
60.38, 0.146214, , 
60.39, 0.145957, , 
60.41, 0.145544, , 
60.43, 0.145485, , 
60.44, 0.145572, , 
60.46, 0.145624, , 
60.48, 0.145786, , 
60.49, 0.145889, , 
60.51, 0.145893, , 
60.53, 0.145941, , 
60.54, 0.145945, , 
60.56, 0.145968, , 
60.58, 0.146187, , 
60.59, 0.146484, , 
60.61, 0.146484, , 
60.63, 0.146187, , 
60.64, 0.146214, , 
60.66, 0.146472, , 
60.68, 0.146837, , 
60.69, 0.147023, , 
60.71, 0.147059, , 
60.73, 0.146900, , 
60.74, 0.146932, , 
60.76, 0.147225, , 
60.78, 0.147388, , 
60.79, 0.147432, , 
60.81, 0.147665, , 
60.83, 0.147824, , 
60.84, 0.147769, , 
60.86, 0.147582, , 
60.88, 0.147198, , 
60.89, 0.147110, , 
60.91, 0.147388, , 
60.93, 0.147416, , 
60.94, 0.147106, , 
60.96, 0.146880, , 
60.98, 0.147321, , 
60.99, 0.148129, , 
61.01, 0.149101, , 
61.03, 0.149850, , 
61.04, 0.150524, , 
61.06, 0.150913, , 
61.08, 0.151071, , 
61.09, 0.151389, , 
61.11, 0.151745, , 
61.13, 0.152229, , 
61.14, 0.152669, , 
61.16, 0.152978, , 
61.18, 0.152994, , 
61.19, 0.152955, , 
61.21, 0.153442, , 
61.23, 0.153922, , 
61.24, 0.154251, , 
61.26, 0.154362, , 
61.28, 0.154449, , 
61.29, 0.154648, , 
61.31, 0.154878, , 
61.33, 0.155179, , 
61.34, 0.155377, , 
61.36, 0.155595, , 
61.38, 0.155865, , 
61.39, 0.156087, , 
61.41, 0.156000, , 
61.43, 0.155643, , 
61.44, 0.155706, , 
61.46, 0.156079, , 
61.48, 0.156432, , 
61.49, 0.156590, , 
61.51, 0.156753, , 
61.53, 0.156789, , 
61.54, 0.156785, , 
61.56, 0.156979, , 
61.58, 0.156979, , 
61.60, 0.156987, , 
61.61, 0.157161, , 
61.63, 0.157209, , 
61.64, 0.156983, , 
61.66, 0.156868, , 
61.68, 0.156900, , 
61.69, 0.157102, , 
61.71, 0.157320, , 
61.73, 0.157324, , 
61.74, 0.157082, , 
61.76, 0.156725, , 
61.78, 0.156860, , 
61.79, 0.157046, , 
61.81, 0.157110, , 
61.83, 0.157102, , 
61.84, 0.157134, , 
61.86, 0.157090, , 
61.88, 0.156900, , 
61.89, 0.156848, , 
61.91, 0.156916, , 
61.93, 0.157257, , 
61.94, 0.157582, , 
61.96, 0.157677, , 
61.98, 0.157463, , 
62.00, 0.157106, , 
62.01, 0.157344, , 
62.03, 0.157669, , 
62.04, 0.157796, , 
62.06, 0.157709, , 
62.08, 0.157617, , 
62.09, 0.157677, , 
62.11, 0.157752, , 
62.13, 0.157915, , 
62.14, 0.158006, , 
62.16, 0.158042, , 
62.18, 0.158129, , 
62.19, 0.158256, , 
62.21, 0.158244, , 
62.23, 0.158101, , 
62.24, 0.158307, , 
62.26, 0.158573, , 
62.28, 0.158660, , 
62.29, 0.158664, , 
62.31, 0.158755, , 
62.33, 0.158835, , 
62.34, 0.158914, , 
62.36, 0.159184, , 
62.38, 0.159267, , 
62.40, 0.159243, , 
62.41, 0.159350, , 
62.43, 0.159354, , 
62.44, 0.159283, , 
62.46, 0.159402, , 
62.48, 0.159628, , 
62.49, 0.160004, , 
62.51, 0.160409, , 
62.53, 0.160647, , 
62.54, 0.160690, , 
62.56, 0.160607, , 
62.58, 0.160892, , 
62.59, 0.161214, , 
62.61, 0.161364, , 
62.63, 0.161440, , 
62.64, 0.161606, , 
62.66, 0.161693, , 
62.68, 0.161626, , 
62.69, 0.161638, , 
62.71, 0.161745, , 
62.73, 0.162003, , 
62.74, 0.162312, , 
62.76, 0.162482, , 
62.78, 0.162367, , 
62.79, 0.162070, , 
62.81, 0.162240, , 
62.83, 0.162522, , 
62.84, 0.162645, , 
62.86, 0.162637, , 
62.88, 0.162613, , 
62.89, 0.162530, , 
62.91, 0.162383, , 
62.93, 0.162367, , 
62.94, 0.162427, , 
62.96, 0.162574, , 
62.98, 0.162704, , 
62.99, 0.162712, , 
63.01, 0.162363, , 
63.03, 0.161717, , 
63.04, 0.161852, , 
63.06, 0.162209, , 
63.08, 0.162455, , 
63.09, 0.162470, , 
63.11, 0.162431, , 
63.13, 0.162431, , 
63.14, 0.162391, , 
63.16, 0.162494, , 
63.18, 0.162526, , 
63.19, 0.162574, , 
63.21, 0.162665, , 
63.23, 0.162696, , 
63.24, 0.162605, , 
63.26, 0.162459, , 
63.28, 0.162645, , 
63.29, 0.162915, , 
63.31, 0.163117, , 
63.33, 0.163109, , 
63.34, 0.163085, , 
63.36, 0.162954, , 
63.38, 0.162859, , 
63.39, 0.162990, , 
63.41, 0.163006, , 
63.43, 0.162796, , 
63.44, 0.162915, , 
63.46, 0.163018, , 
63.48, 0.163041, , 
63.49, 0.163121, , 
63.51, 0.163208, , 
63.53, 0.163402, , 
63.54, 0.163660, , 
63.56, 0.163878, , 
63.58, 0.163838, , 
63.59, 0.163565, , 
63.61, 0.163731, , 
63.63, 0.163993, , 
63.64, 0.164100, , 
63.66, 0.164108, , 
63.68, 0.164124, , 
63.69, 0.164068, , 
63.71, 0.163874, , 
63.73, 0.163834, , 
63.74, 0.163870, , 
63.76, 0.164005, , 
63.78, 0.164175, , 
63.79, 0.164231, , 
63.81, 0.163989, , 
63.83, 0.163596, , 
63.84, 0.163759, , 
63.86, 0.164072, , 
63.88, 0.164175, , 
63.89, 0.164132, , 
63.91, 0.164037, , 
63.93, 0.163969, , 
63.94, 0.163830, , 
63.96, 0.163886, , 
63.98, 0.163926, , 
63.99, 0.163981, , 
64.01, 0.164108, , 
64.03, 0.164199, , 
64.04, 0.163997, , 
64.06, 0.163692, , 
64.08, 0.163799, , 
64.09, 0.164041, , 
64.11, 0.164156, , 
64.13, 0.164096, , 
64.15, 0.163981, , 
64.16, 0.163945, , 
64.18, 0.163850, , 
64.19, 0.163791, , 
64.21, 0.163656, , 
64.23, 0.163497, , 
64.24, 0.163545, , 
64.26, 0.163692, , 
64.28, 0.163589, , 
64.29, 0.163236, , 
64.31, 0.163188, , 
64.33, 0.163386, , 
64.34, 0.163589, , 
64.36, 0.163628, , 
64.38, 0.163565, , 
64.39, 0.163299, , 
64.41, 0.163093, , 
64.43, 0.162899, , 
64.44, 0.162657, , 
64.46, 0.162550, , 
64.48, 0.162708, , 
64.49, 0.162827, , 
64.51, 0.162772, , 
64.53, 0.162748, , 
64.55, 0.162752, , 
64.56, 0.162891, , 
64.58, 0.163089, , 
64.59, 0.163188, , 
64.61, 0.163006, , 
64.63, 0.162629, , 
64.64, 0.162720, , 
64.66, 0.162974, , 
64.68, 0.163113, , 
64.69, 0.163097, , 
64.71, 0.162942, , 
64.73, 0.162696, , 
64.74, 0.162431, , 
64.76, 0.162391, , 
64.78, 0.162403, , 
64.79, 0.162423, , 
64.81, 0.162581, , 
64.83, 0.162700, , 
64.84, 0.162522, , 
64.86, 0.162149, , 
64.88, 0.162050, , 
64.89, 0.162197, , 
64.91, 0.162312, , 
64.93, 0.162233, , 
64.95, 0.162066, , 
64.96, 0.161919, , 
64.98, 0.161709, , 
64.99, 0.161642, , 
65.01, 0.161618, , 
65.03, 0.161566, , 
65.04, 0.161622, , 
65.06, 0.161729, , 
65.08, 0.161586, , 
65.09, 0.161233, , 
65.11, 0.161142, , 
65.13, 0.161218, , 
65.14, 0.161281, , 
65.16, 0.161198, , 
65.18, 0.161059, , 
65.19, 0.160845, , 
65.21, 0.160599, , 
65.23, 0.160595, , 
65.24, 0.160555, , 
65.26, 0.160472, , 
65.28, 0.160488, , 
65.29, 0.160540, , 
65.31, 0.160381, , 
65.33, 0.159977, , 
65.34, 0.159842, , 
65.36, 0.159917, , 
65.38, 0.159949, , 
65.39, 0.159846, , 
65.41, 0.159647, , 
65.43, 0.159053, , 
65.44, 0.158747, , 
65.46, 0.158862, , 
65.48, 0.158962, , 
65.49, 0.159001, , 
65.51, 0.159065, , 
65.53, 0.159073, , 
65.54, 0.158835, , 
65.56, 0.158617, , 
65.58, 0.158466, , 
65.59, 0.158474, , 
65.61, 0.158676, , 
65.63, 0.158843, , 
65.64, 0.158605, , 
65.66, 0.158022, , 
65.68, 0.157954, , 
65.69, 0.158121, , 
65.71, 0.158272, , 
65.73, 0.158236, , 
65.74, 0.157978, , 
65.76, 0.157768, , 
65.78, 0.157249, , 
65.79, 0.157201, , 
65.81, 0.157296, , 
65.83, 0.157352, , 
65.84, 0.157387, , 
65.86, 0.157419, , 
65.88, 0.157181, , 
65.89, 0.156702, , 
65.91, 0.156535, , 
65.93, 0.156678, , 
65.94, 0.156836, , 
65.96, 0.156773, , 
65.98, 0.156507, , 
65.99, 0.156154, , 
66.01, 0.155964, , 
66.03, 0.156095, , 
66.04, 0.156091, , 
66.06, 0.155849, , 
66.08, 0.155706, , 
66.09, 0.155734, , 
66.11, 0.155591, , 
66.13, 0.155143, , 
66.14, 0.155001, , 
66.16, 0.155096, , 
66.18, 0.155127, , 
66.19, 0.154949, , 
66.21, 0.154664, , 
66.23, 0.154085, , 
66.24, 0.153795, , 
66.26, 0.153902, , 
66.28, 0.153890, , 
66.30, 0.153652, , 
66.31, 0.153601, , 
66.33, 0.153597, , 
66.34, 0.153438, , 
66.36, 0.153244, , 
66.38, 0.152990, , 
66.39, 0.152689, , 
66.41, 0.152273, , 
66.43, 0.151928, , 
66.44, 0.151714, , 
66.46, 0.151452, , 
66.48, 0.151599, , 
66.49, 0.151844, , 
66.51, 0.152023, , 
66.53, 0.152003, , 
66.54, 0.151852, , 
66.56, 0.151694, , 
66.58, 0.151448, , 
66.59, 0.151274, , 
66.61, 0.151020, , 
66.63, 0.150770, , 
66.64, 0.150841, , 
66.66, 0.150948, , 
66.68, 0.150714, , 
66.70, 0.150144, , 
66.71, 0.150013, , 
66.73, 0.150167, , 
66.74, 0.150346, , 
66.76, 0.150247, , 
66.78, 0.149890, , 
66.79, 0.149565, , 
66.81, 0.149347, , 
66.83, 0.149414, , 
66.84, 0.149355, , 
66.86, 0.149228, , 
66.88, 0.149168, , 
66.89, 0.148807, , 
66.91, 0.148589, , 
66.93, 0.147360, , 
66.94, 0.146694, , 
66.96, 0.146492, , 
66.98, 0.146333, , 
66.99, 0.146076, , 
67.01, 0.145719, , 
67.03, 0.145267, , 
67.04, 0.145643, , 
67.06, 0.146389, , 
67.08, 0.146785, , 
67.10, 0.146754, , 
67.11, 0.146643, , 
67.13, 0.146571, , 
67.14, 0.146349, , 
67.16, 0.146222, , 
67.18, 0.146000, , 
67.19, 0.145818, , 
67.21, 0.145790, , 
67.23, 0.145723, , 
67.24, 0.145374, , 
67.26, 0.144854, , 
67.28, 0.144815, , 
67.29, 0.144850, , 
67.31, 0.144720, , 
67.33, 0.144426, , 
67.34, 0.144157, , 
67.36, 0.143847, , 
67.38, 0.143823, , 
67.39, 0.143665, , 
67.41, 0.143253, , 
67.43, 0.142725, , 
67.44, 0.142440, , 
67.46, 0.142301, , 
67.48, 0.141948, , 
67.49, 0.141825, , 
67.51, 0.141924, , 
67.53, 0.142083, , 
67.54, 0.142091, , 
67.56, 0.141845, , 
67.58, 0.141337, , 
67.59, 0.140866, , 
67.61, 0.140798, , 
67.63, 0.140798, , 
67.64, 0.140659, , 
67.66, 0.140457, , 
67.68, 0.140287, , 
67.69, 0.139930, , 
67.71, 0.139748, , 
67.73, 0.139625, , 
67.74, 0.139577, , 
67.76, 0.139605, , 
67.78, 0.139617, , 
67.79, 0.139252, , 
67.81, 0.138570, , 
67.83, 0.138415, , 
67.84, 0.138471, , 
67.86, 0.138574, , 
67.88, 0.138514, , 
67.89, 0.138280, , 
67.91, 0.137932, , 
67.93, 0.137587, , 
67.94, 0.137559, , 
67.96, 0.137472, , 
67.98, 0.137309, , 
67.99, 0.137277, , 
68.01, 0.137265, , 
68.03, 0.137004, , 
68.04, 0.136516, , 
68.06, 0.136302, , 
68.08, 0.136377, , 
68.09, 0.136441, , 
68.11, 0.136250, , 
68.13, 0.135902, , 
68.14, 0.135604, , 
68.16, 0.135362, , 
68.18, 0.135398, , 
68.19, 0.135374, , 
68.21, 0.135105, , 
68.23, 0.134875, , 
68.24, 0.134807, , 
68.26, 0.134609, , 
68.28, 0.134098, , 
68.29, 0.133737, , 
68.31, 0.133562, , 
68.33, 0.133384, , 
68.34, 0.133166, , 
68.36, 0.132853, , 
68.38, 0.132297, , 
68.39, 0.131830, , 
68.41, 0.131679, , 
68.43, 0.131326, , 
68.45, 0.130854, , 
68.46, 0.130577, , 
68.48, 0.130509, , 
68.49, 0.130109, , 
68.51, 0.129819, , 
68.53, 0.129494, , 
68.54, 0.129288, , 
68.56, 0.129233, , 
68.58, 0.129149, , 
68.59, 0.128670, , 
68.61, 0.127877, , 
68.63, 0.127547, , 
68.64, 0.127464, , 
68.66, 0.127440, , 
68.68, 0.127218, , 
68.69, 0.126818, , 
68.71, 0.126441, , 
68.73, 0.126037, , 
68.74, 0.125835, , 
68.76, 0.125589, , 
68.78, 0.125315, , 
68.79, 0.125228, , 
68.81, 0.125200, , 
68.83, 0.124843, , 
68.85, 0.124134, , 
68.86, 0.123912, , 
68.88, 0.123935, , 
68.89, 0.124042, , 
68.91, 0.123924, , 
68.93, 0.123543, , 
68.94, 0.123127, , 
68.96, 0.122698, , 
68.98, 0.122706, , 
68.99, 0.122667, , 
69.01, 0.122453, , 
69.03, 0.122314, , 
69.04, 0.122282, , 
69.06, 0.122080, , 
69.08, 0.121616, , 
69.09, 0.121453, , 
69.11, 0.121406, , 
69.13, 0.121426, , 
69.14, 0.121406, , 
69.16, 0.121247, , 
69.18, 0.120767, , 
69.19, 0.120411, , 
69.21, 0.120490, , 
69.23, 0.120474, , 
69.25, 0.120248, , 
69.26, 0.120085, , 
69.28, 0.120058, , 
69.29, 0.119923, , 
69.31, 0.119867, , 
69.33, 0.119760, , 
69.34, 0.119669, , 
69.36, 0.119717, , 
69.38, 0.119796, , 
69.39, 0.119522, , 
69.41, 0.118884, , 
69.43, 0.118551, , 
69.44, 0.118575, , 
69.46, 0.118785, , 
69.48, 0.118932, , 
69.49, 0.118948, , 
69.51, 0.118789, , 
69.53, 0.118579, , 
69.54, 0.118591, , 
69.56, 0.118559, , 
69.58, 0.118500, , 
69.59, 0.118583, , 
69.61, 0.118559, , 
69.63, 0.117996, , 
69.64, 0.117342, , 
69.66, 0.117346, , 
69.68, 0.117683, , 
69.69, 0.117964, , 
69.71, 0.117988, , 
69.73, 0.117865, , 
69.74, 0.117627, , 
69.76, 0.117397, , 
69.78, 0.117429, , 
69.79, 0.117330, , 
69.81, 0.117080, , 
69.83, 0.116842, , 
69.84, 0.116890, , 
69.86, 0.116854, , 
69.88, 0.116466, , 
69.89, 0.116426, , 
69.91, 0.116596, , 
69.93, 0.116838, , 
69.94, 0.116945, , 
69.96, 0.116787, , 
69.98, 0.116394, , 
69.99, 0.115966, , 
70.01, 0.115926, , 
70.03, 0.115859, , 
70.04, 0.115756, , 
70.06, 0.115760, , 
70.08, 0.115891, , 
70.09, 0.115799, , 
70.11, 0.115498, , 
70.13, 0.115419, , 
70.14, 0.115466, , 
70.16, 0.115565, , 
70.18, 0.115550, , 
70.19, 0.115351, , 
70.21, 0.115006, , 
70.23, 0.114788, , 
70.24, 0.114907, , 
70.26, 0.114967, , 
70.28, 0.114737, , 
70.29, 0.114432, , 
70.31, 0.114237, , 
